Created as New Dataset,Sample 009 By USER Date 3 9 2009
cm-1,A
4000.00,0.0358
3999.50,0.0358
3999.00,0.0358
3998.50,0.0358
3998.00,0.0357
3997.50,0.0357
3997.00,0.0357
3996.50,0.0357
3996.00,0.0357
3995.50,0.0357
3995.00,0.0357
3994.50,0.0357
3994.00,0.0357
3993.50,0.0357
3993.00,0.0357
3992.50,0.0357
3992.00,0.0357
3991.50,0.0357
3991.00,0.0357
3990.50,0.0356
3990.00,0.0356
3989.50,0.0356
3989.00,0.0356
3988.50,0.0356
3988.00,0.0356
3987.50,0.0356
3987.00,0.0356
3986.50,0.0356
3986.00,0.0356
3985.50,0.0356
3985.00,0.0355
3984.50,0.0355
3984.00,0.0355
3983.50,0.0355
3983.00,0.0355
3982.50,0.0355
3982.00,0.0355
3981.50,0.0355
3981.00,0.0355
3980.50,0.0355
3980.00,0.0355
3979.50,0.0355
3979.00,0.0354
3978.50,0.0354
3978.00,0.0354
3977.50,0.0354
3977.00,0.0354
3976.50,0.0354
3976.00,0.0354
3975.50,0.0354
3975.00,0.0354
3974.50,0.0354
3974.00,0.0354
3973.50,0.0354
3973.00,0.0354
3972.50,0.0354
3972.00,0.0354
3971.50,0.0354
3971.00,0.0353
3970.50,0.0353
3970.00,0.0353
3969.50,0.0353
3969.00,0.0353
3968.50,0.0353
3968.00,0.0353
3967.50,0.0353
3967.00,0.0353
3966.50,0.0353
3966.00,0.0353
3965.50,0.0353
3965.00,0.0352
3964.50,0.0352
3964.00,0.0352
3963.50,0.0352
3963.00,0.0352
3962.50,0.0352
3962.00,0.0352
3961.50,0.0352
3961.00,0.0352
3960.50,0.0352
3960.00,0.0352
3959.50,0.0352
3959.00,0.0352
3958.50,0.0352
3958.00,0.0352
3957.50,0.0352
3957.00,0.0352
3956.50,0.0352
3956.00,0.0352
3955.50,0.0352
3955.00,0.0352
3954.50,0.0352
3954.00,0.0352
3953.50,0.0352
3953.00,0.0352
3952.50,0.0352
3952.00,0.0352
3951.50,0.0352
3951.00,0.0352
3950.50,0.0352
3950.00,0.0352
3949.50,0.0351
3949.00,0.0351
3948.50,0.0350
3948.00,0.0349
3947.50,0.0349
3947.00,0.0349
3946.50,0.0349
3946.00,0.0350
3945.50,0.0350
3945.00,0.0351
3944.50,0.0351
3944.00,0.0351
3943.50,0.0352
3943.00,0.0352
3942.50,0.0352
3942.00,0.0352
3941.50,0.0351
3941.00,0.0351
3940.50,0.0351
3940.00,0.0351
3939.50,0.0351
3939.00,0.0351
3938.50,0.0351
3938.00,0.0351
3937.50,0.0350
3937.00,0.0350
3936.50,0.0350
3936.00,0.0350
3935.50,0.0350
3935.00,0.0350
3934.50,0.0350
3934.00,0.0349
3933.50,0.0348
3933.00,0.0347
3932.50,0.0347
3932.00,0.0347
3931.50,0.0349
3931.00,0.0350
3930.50,0.0351
3930.00,0.0351
3929.50,0.0351
3929.00,0.0351
3928.50,0.0350
3928.00,0.0350
3927.50,0.0350
3927.00,0.0350
3926.50,0.0351
3926.00,0.0351
3925.50,0.0352
3925.00,0.0352
3924.50,0.0352
3924.00,0.0352
3923.50,0.0351
3923.00,0.0350
3922.50,0.0350
3922.00,0.0349
3921.50,0.0349
3921.00,0.0349
3920.50,0.0349
3920.00,0.0349
3919.50,0.0349
3919.00,0.0348
3918.50,0.0347
3918.00,0.0347
3917.50,0.0347
3917.00,0.0347
3916.50,0.0348
3916.00,0.0349
3915.50,0.0350
3915.00,0.0350
3914.50,0.0350
3914.00,0.0350
3913.50,0.0350
3913.00,0.0350
3912.50,0.0350
3912.00,0.0350
3911.50,0.0350
3911.00,0.0350
3910.50,0.0350
3910.00,0.0350
3909.50,0.0350
3909.00,0.0350
3908.50,0.0350
3908.00,0.0350
3907.50,0.0351
3907.00,0.0351
3906.50,0.0352
3906.00,0.0353
3905.50,0.0354
3905.00,0.0354
3904.50,0.0353
3904.00,0.0351
3903.50,0.0349
3903.00,0.0348
3902.50,0.0347
3902.00,0.0346
3901.50,0.0346
3901.00,0.0347
3900.50,0.0348
3900.00,0.0350
3899.50,0.0352
3899.00,0.0353
3898.50,0.0354
3898.00,0.0354
3897.50,0.0353
3897.00,0.0352
3896.50,0.0352
3896.00,0.0351
3895.50,0.0351
3895.00,0.0352
3894.50,0.0352
3894.00,0.0353
3893.50,0.0353
3893.00,0.0354
3892.50,0.0355
3892.00,0.0355
3891.50,0.0356
3891.00,0.0356
3890.50,0.0355
3890.00,0.0354
3889.50,0.0353
3889.00,0.0352
3888.50,0.0351
3888.00,0.0350
3887.50,0.0350
3887.00,0.0350
3886.50,0.0350
3886.00,0.0349
3885.50,0.0350
3885.00,0.0351
3884.50,0.0352
3884.00,0.0353
3883.50,0.0353
3883.00,0.0353
3882.50,0.0352
3882.00,0.0353
3881.50,0.0353
3881.00,0.0354
3880.50,0.0354
3880.00,0.0353
3879.50,0.0353
3879.00,0.0353
3878.50,0.0353
3878.00,0.0353
3877.50,0.0353
3877.00,0.0352
3876.50,0.0352
3876.00,0.0353
3875.50,0.0353
3875.00,0.0354
3874.50,0.0354
3874.00,0.0354
3873.50,0.0354
3873.00,0.0354
3872.50,0.0354
3872.00,0.0354
3871.50,0.0354
3871.00,0.0354
3870.50,0.0353
3870.00,0.0353
3869.50,0.0353
3869.00,0.0353
3868.50,0.0353
3868.00,0.0354
3867.50,0.0354
3867.00,0.0354
3866.50,0.0355
3866.00,0.0356
3865.50,0.0356
3865.00,0.0356
3864.50,0.0356
3864.00,0.0356
3863.50,0.0356
3863.00,0.0356
3862.50,0.0357
3862.00,0.0357
3861.50,0.0356
3861.00,0.0356
3860.50,0.0355
3860.00,0.0355
3859.50,0.0355
3859.00,0.0354
3858.50,0.0355
3858.00,0.0356
3857.50,0.0358
3857.00,0.0360
3856.50,0.0362
3856.00,0.0365
3855.50,0.0368
3855.00,0.0371
3854.50,0.0371
3854.00,0.0370
3853.50,0.0369
3853.00,0.0368
3852.50,0.0367
3852.00,0.0365
3851.50,0.0364
3851.00,0.0363
3850.50,0.0363
3850.00,0.0363
3849.50,0.0363
3849.00,0.0363
3848.50,0.0363
3848.00,0.0363
3847.50,0.0363
3847.00,0.0364
3846.50,0.0365
3846.00,0.0366
3845.50,0.0367
3845.00,0.0368
3844.50,0.0368
3844.00,0.0369
3843.50,0.0369
3843.00,0.0369
3842.50,0.0369
3842.00,0.0369
3841.50,0.0370
3841.00,0.0370
3840.50,0.0371
3840.00,0.0372
3839.50,0.0373
3839.00,0.0374
3838.50,0.0375
3838.00,0.0376
3837.50,0.0377
3837.00,0.0377
3836.50,0.0378
3836.00,0.0379
3835.50,0.0379
3835.00,0.0379
3834.50,0.0379
3834.00,0.0379
3833.50,0.0379
3833.00,0.0379
3832.50,0.0380
3832.00,0.0379
3831.50,0.0379
3831.00,0.0379
3830.50,0.0379
3830.00,0.0379
3829.50,0.0379
3829.00,0.0379
3828.50,0.0379
3828.00,0.0379
3827.50,0.0380
3827.00,0.0381
3826.50,0.0381
3826.00,0.0381
3825.50,0.0381
3825.00,0.0381
3824.50,0.0381
3824.00,0.0381
3823.50,0.0381
3823.00,0.0382
3822.50,0.0381
3822.00,0.0381
3821.50,0.0382
3821.00,0.0384
3820.50,0.0385
3820.00,0.0385
3819.50,0.0385
3819.00,0.0384
3818.50,0.0384
3818.00,0.0383
3817.50,0.0383
3817.00,0.0383
3816.50,0.0384
3816.00,0.0384
3815.50,0.0385
3815.00,0.0385
3814.50,0.0385
3814.00,0.0385
3813.50,0.0385
3813.00,0.0385
3812.50,0.0385
3812.00,0.0385
3811.50,0.0385
3811.00,0.0385
3810.50,0.0385
3810.00,0.0386
3809.50,0.0386
3809.00,0.0387
3808.50,0.0388
3808.00,0.0390
3807.50,0.0390
3807.00,0.0390
3806.50,0.0389
3806.00,0.0389
3805.50,0.0389
3805.00,0.0389
3804.50,0.0389
3804.00,0.0389
3803.50,0.0389
3803.00,0.0390
3802.50,0.0391
3802.00,0.0393
3801.50,0.0395
3801.00,0.0397
3800.50,0.0397
3800.00,0.0396
3799.50,0.0396
3799.00,0.0396
3798.50,0.0396
3798.00,0.0396
3797.50,0.0396
3797.00,0.0396
3796.50,0.0396
3796.00,0.0396
3795.50,0.0397
3795.00,0.0398
3794.50,0.0399
3794.00,0.0399
3793.50,0.0400
3793.00,0.0401
3792.50,0.0401
3792.00,0.0402
3791.50,0.0402
3791.00,0.0403
3790.50,0.0403
3790.00,0.0404
3789.50,0.0405
3789.00,0.0406
3788.50,0.0407
3788.00,0.0408
3787.50,0.0409
3787.00,0.0409
3786.50,0.0410
3786.00,0.0411
3785.50,0.0412
3785.00,0.0413
3784.50,0.0414
3784.00,0.0415
3783.50,0.0416
3783.00,0.0416
3782.50,0.0417
3782.00,0.0418
3781.50,0.0419
3781.00,0.0419
3780.50,0.0421
3780.00,0.0422
3779.50,0.0423
3779.00,0.0424
3778.50,0.0425
3778.00,0.0426
3777.50,0.0426
3777.00,0.0427
3776.50,0.0427
3776.00,0.0428
3775.50,0.0429
3775.00,0.0429
3774.50,0.0430
3774.00,0.0430
3773.50,0.0431
3773.00,0.0432
3772.50,0.0432
3772.00,0.0433
3771.50,0.0434
3771.00,0.0434
3770.50,0.0435
3770.00,0.0435
3769.50,0.0435
3769.00,0.0436
3768.50,0.0436
3768.00,0.0437
3767.50,0.0437
3767.00,0.0437
3766.50,0.0437
3766.00,0.0438
3765.50,0.0438
3765.00,0.0439
3764.50,0.0439
3764.00,0.0439
3763.50,0.0440
3763.00,0.0440
3762.50,0.0440
3762.00,0.0440
3761.50,0.0440
3761.00,0.0440
3760.50,0.0440
3760.00,0.0440
3759.50,0.0440
3759.00,0.0441
3758.50,0.0441
3758.00,0.0441
3757.50,0.0441
3757.00,0.0441
3756.50,0.0440
3756.00,0.0439
3755.50,0.0439
3755.00,0.0439
3754.50,0.0438
3754.00,0.0438
3753.50,0.0438
3753.00,0.0438
3752.50,0.0438
3752.00,0.0438
3751.50,0.0437
3751.00,0.0437
3750.50,0.0438
3750.00,0.0437
3749.50,0.0437
3749.00,0.0436
3748.50,0.0435
3748.00,0.0434
3747.50,0.0433
3747.00,0.0432
3746.50,0.0432
3746.00,0.0432
3745.50,0.0431
3745.00,0.0431
3744.50,0.0432
3744.00,0.0433
3743.50,0.0432
3743.00,0.0431
3742.50,0.0430
3742.00,0.0429
3741.50,0.0428
3741.00,0.0426
3740.50,0.0425
3740.00,0.0423
3739.50,0.0423
3739.00,0.0422
3738.50,0.0422
3738.00,0.0421
3737.50,0.0421
3737.00,0.0420
3736.50,0.0421
3736.00,0.0421
3735.50,0.0423
3735.00,0.0424
3734.50,0.0425
3734.00,0.0425
3733.50,0.0427
3733.00,0.0428
3732.50,0.0429
3732.00,0.0429
3731.50,0.0429
3731.00,0.0429
3730.50,0.0430
3730.00,0.0430
3729.50,0.0431
3729.00,0.0431
3728.50,0.0431
3728.00,0.0431
3727.50,0.0432
3727.00,0.0432
3726.50,0.0433
3726.00,0.0435
3725.50,0.0437
3725.00,0.0438
3724.50,0.0439
3724.00,0.0440
3723.50,0.0441
3723.00,0.0442
3722.50,0.0443
3722.00,0.0444
3721.50,0.0445
3721.00,0.0446
3720.50,0.0448
3720.00,0.0449
3719.50,0.0450
3719.00,0.0451
3718.50,0.0452
3718.00,0.0453
3717.50,0.0454
3717.00,0.0455
3716.50,0.0455
3716.00,0.0456
3715.50,0.0457
3715.00,0.0458
3714.50,0.0459
3714.00,0.0460
3713.50,0.0461
3713.00,0.0461
3712.50,0.0463
3712.00,0.0465
3711.50,0.0467
3711.00,0.0469
3710.50,0.0471
3710.00,0.0473
3709.50,0.0473
3709.00,0.0473
3708.50,0.0474
3708.00,0.0475
3707.50,0.0476
3707.00,0.0477
3706.50,0.0478
3706.00,0.0479
3705.50,0.0480
3705.00,0.0481
3704.50,0.0482
3704.00,0.0483
3703.50,0.0483
3703.00,0.0484
3702.50,0.0485
3702.00,0.0487
3701.50,0.0487
3701.00,0.0487
3700.50,0.0487
3700.00,0.0487
3699.50,0.0486
3699.00,0.0485
3698.50,0.0485
3698.00,0.0485
3697.50,0.0484
3697.00,0.0484
3696.50,0.0483
3696.00,0.0483
3695.50,0.0482
3695.00,0.0481
3694.50,0.0481
3694.00,0.0480
3693.50,0.0480
3693.00,0.0479
3692.50,0.0478
3692.00,0.0477
3691.50,0.0476
3691.00,0.0476
3690.50,0.0476
3690.00,0.0476
3689.50,0.0476
3689.00,0.0475
3688.50,0.0473
3688.00,0.0470
3687.50,0.0468
3687.00,0.0467
3686.50,0.0466
3686.00,0.0465
3685.50,0.0464
3685.00,0.0463
3684.50,0.0463
3684.00,0.0462
3683.50,0.0461
3683.00,0.0460
3682.50,0.0459
3682.00,0.0458
3681.50,0.0458
3681.00,0.0457
3680.50,0.0457
3680.00,0.0457
3679.50,0.0457
3679.00,0.0456
3678.50,0.0456
3678.00,0.0456
3677.50,0.0456
3677.00,0.0455
3676.50,0.0454
3676.00,0.0453
3675.50,0.0454
3675.00,0.0455
3674.50,0.0457
3674.00,0.0457
3673.50,0.0456
3673.00,0.0456
3672.50,0.0456
3672.00,0.0456
3671.50,0.0457
3671.00,0.0458
3670.50,0.0459
3670.00,0.0460
3669.50,0.0461
3669.00,0.0462
3668.50,0.0462
3668.00,0.0463
3667.50,0.0463
3667.00,0.0463
3666.50,0.0463
3666.00,0.0463
3665.50,0.0463
3665.00,0.0463
3664.50,0.0464
3664.00,0.0465
3663.50,0.0466
3663.00,0.0467
3662.50,0.0468
3662.00,0.0469
3661.50,0.0470
3661.00,0.0470
3660.50,0.0471
3660.00,0.0472
3659.50,0.0472
3659.00,0.0473
3658.50,0.0474
3658.00,0.0475
3657.50,0.0476
3657.00,0.0477
3656.50,0.0479
3656.00,0.0480
3655.50,0.0481
3655.00,0.0481
3654.50,0.0482
3654.00,0.0483
3653.50,0.0483
3653.00,0.0484
3652.50,0.0485
3652.00,0.0485
3651.50,0.0486
3651.00,0.0486
3650.50,0.0487
3650.00,0.0488
3649.50,0.0489
3649.00,0.0490
3648.50,0.0490
3648.00,0.0491
3647.50,0.0492
3647.00,0.0494
3646.50,0.0494
3646.00,0.0495
3645.50,0.0495
3645.00,0.0495
3644.50,0.0495
3644.00,0.0495
3643.50,0.0496
3643.00,0.0497
3642.50,0.0497
3642.00,0.0497
3641.50,0.0497
3641.00,0.0497
3640.50,0.0497
3640.00,0.0497
3639.50,0.0497
3639.00,0.0497
3638.50,0.0496
3638.00,0.0495
3637.50,0.0493
3637.00,0.0492
3636.50,0.0491
3636.00,0.0491
3635.50,0.0491
3635.00,0.0491
3634.50,0.0491
3634.00,0.0491
3633.50,0.0490
3633.00,0.0489
3632.50,0.0488
3632.00,0.0488
3631.50,0.0488
3631.00,0.0487
3630.50,0.0486
3630.00,0.0485
3629.50,0.0484
3629.00,0.0484
3628.50,0.0484
3628.00,0.0484
3627.50,0.0484
3627.00,0.0483
3626.50,0.0483
3626.00,0.0482
3625.50,0.0482
3625.00,0.0481
3624.50,0.0480
3624.00,0.0480
3623.50,0.0480
3623.00,0.0480
3622.50,0.0480
3622.00,0.0481
3621.50,0.0482
3621.00,0.0483
3620.50,0.0484
3620.00,0.0485
3619.50,0.0484
3619.00,0.0484
3618.50,0.0483
3618.00,0.0482
3617.50,0.0481
3617.00,0.0480
3616.50,0.0479
3616.00,0.0479
3615.50,0.0479
3615.00,0.0479
3614.50,0.0479
3614.00,0.0479
3613.50,0.0479
3613.00,0.0480
3612.50,0.0480
3612.00,0.0480
3611.50,0.0480
3611.00,0.0480
3610.50,0.0479
3610.00,0.0479
3609.50,0.0478
3609.00,0.0478
3608.50,0.0478
3608.00,0.0480
3607.50,0.0481
3607.00,0.0482
3606.50,0.0482
3606.00,0.0483
3605.50,0.0483
3605.00,0.0483
3604.50,0.0484
3604.00,0.0484
3603.50,0.0484
3603.00,0.0485
3602.50,0.0485
3602.00,0.0485
3601.50,0.0486
3601.00,0.0486
3600.50,0.0486
3600.00,0.0486
3599.50,0.0486
3599.00,0.0486
3598.50,0.0487
3598.00,0.0486
3597.50,0.0486
3597.00,0.0486
3596.50,0.0487
3596.00,0.0487
3595.50,0.0487
3595.00,0.0487
3594.50,0.0487
3594.00,0.0488
3593.50,0.0488
3593.00,0.0488
3592.50,0.0488
3592.00,0.0487
3591.50,0.0487
3591.00,0.0486
3590.50,0.0485
3590.00,0.0484
3589.50,0.0484
3589.00,0.0483
3588.50,0.0484
3588.00,0.0484
3587.50,0.0485
3587.00,0.0486
3586.50,0.0485
3586.00,0.0485
3585.50,0.0485
3585.00,0.0485
3584.50,0.0484
3584.00,0.0484
3583.50,0.0484
3583.00,0.0483
3582.50,0.0483
3582.00,0.0482
3581.50,0.0482
3581.00,0.0482
3580.50,0.0482
3580.00,0.0482
3579.50,0.0481
3579.00,0.0481
3578.50,0.0481
3578.00,0.0480
3577.50,0.0480
3577.00,0.0479
3576.50,0.0479
3576.00,0.0478
3575.50,0.0478
3575.00,0.0477
3574.50,0.0477
3574.00,0.0476
3573.50,0.0476
3573.00,0.0475
3572.50,0.0474
3572.00,0.0474
3571.50,0.0473
3571.00,0.0473
3570.50,0.0472
3570.00,0.0471
3569.50,0.0470
3569.00,0.0469
3568.50,0.0467
3568.00,0.0466
3567.50,0.0465
3567.00,0.0466
3566.50,0.0467
3566.00,0.0468
3565.50,0.0469
3565.00,0.0469
3564.50,0.0469
3564.00,0.0469
3563.50,0.0468
3563.00,0.0468
3562.50,0.0467
3562.00,0.0467
3561.50,0.0466
3561.00,0.0466
3560.50,0.0466
3560.00,0.0466
3559.50,0.0466
3559.00,0.0465
3558.50,0.0465
3558.00,0.0465
3557.50,0.0464
3557.00,0.0464
3556.50,0.0463
3556.00,0.0463
3555.50,0.0463
3555.00,0.0462
3554.50,0.0462
3554.00,0.0462
3553.50,0.0462
3553.00,0.0462
3552.50,0.0462
3552.00,0.0462
3551.50,0.0461
3551.00,0.0461
3550.50,0.0461
3550.00,0.0460
3549.50,0.0460
3549.00,0.0460
3548.50,0.0459
3548.00,0.0458
3547.50,0.0458
3547.00,0.0457
3546.50,0.0457
3546.00,0.0458
3545.50,0.0458
3545.00,0.0459
3544.50,0.0459
3544.00,0.0460
3543.50,0.0460
3543.00,0.0460
3542.50,0.0459
3542.00,0.0459
3541.50,0.0459
3541.00,0.0459
3540.50,0.0459
3540.00,0.0459
3539.50,0.0459
3539.00,0.0459
3538.50,0.0459
3538.00,0.0459
3537.50,0.0459
3537.00,0.0459
3536.50,0.0459
3536.00,0.0459
3535.50,0.0459
3535.00,0.0458
3534.50,0.0458
3534.00,0.0458
3533.50,0.0458
3533.00,0.0457
3532.50,0.0457
3532.00,0.0457
3531.50,0.0457
3531.00,0.0457
3530.50,0.0457
3530.00,0.0457
3529.50,0.0457
3529.00,0.0457
3528.50,0.0457
3528.00,0.0457
3527.50,0.0457
3527.00,0.0456
3526.50,0.0455
3526.00,0.0455
3525.50,0.0454
3525.00,0.0454
3524.50,0.0455
3524.00,0.0455
3523.50,0.0455
3523.00,0.0455
3522.50,0.0455
3522.00,0.0455
3521.50,0.0455
3521.00,0.0455
3520.50,0.0455
3520.00,0.0455
3519.50,0.0455
3519.00,0.0455
3518.50,0.0454
3518.00,0.0454
3517.50,0.0454
3517.00,0.0454
3516.50,0.0453
3516.00,0.0453
3515.50,0.0453
3515.00,0.0453
3514.50,0.0453
3514.00,0.0452
3513.50,0.0452
3513.00,0.0452
3512.50,0.0452
3512.00,0.0452
3511.50,0.0451
3511.00,0.0451
3510.50,0.0451
3510.00,0.0451
3509.50,0.0450
3509.00,0.0450
3508.50,0.0450
3508.00,0.0450
3507.50,0.0449
3507.00,0.0449
3506.50,0.0449
3506.00,0.0449
3505.50,0.0449
3505.00,0.0448
3504.50,0.0448
3504.00,0.0448
3503.50,0.0448
3503.00,0.0447
3502.50,0.0447
3502.00,0.0447
3501.50,0.0447
3501.00,0.0447
3500.50,0.0447
3500.00,0.0446
3499.50,0.0446
3499.00,0.0446
3498.50,0.0446
3498.00,0.0446
3497.50,0.0446
3497.00,0.0445
3496.50,0.0445
3496.00,0.0445
3495.50,0.0445
3495.00,0.0445
3494.50,0.0444
3494.00,0.0444
3493.50,0.0444
3493.00,0.0444
3492.50,0.0443
3492.00,0.0443
3491.50,0.0443
3491.00,0.0442
3490.50,0.0442
3490.00,0.0442
3489.50,0.0442
3489.00,0.0442
3488.50,0.0442
3488.00,0.0441
3487.50,0.0441
3487.00,0.0441
3486.50,0.0441
3486.00,0.0440
3485.50,0.0440
3485.00,0.0440
3484.50,0.0440
3484.00,0.0439
3483.50,0.0439
3483.00,0.0439
3482.50,0.0439
3482.00,0.0439
3481.50,0.0438
3481.00,0.0438
3480.50,0.0438
3480.00,0.0437
3479.50,0.0437
3479.00,0.0437
3478.50,0.0437
3478.00,0.0437
3477.50,0.0437
3477.00,0.0436
3476.50,0.0436
3476.00,0.0436
3475.50,0.0436
3475.00,0.0436
3474.50,0.0435
3474.00,0.0435
3473.50,0.0435
3473.00,0.0434
3472.50,0.0434
3472.00,0.0434
3471.50,0.0434
3471.00,0.0433
3470.50,0.0433
3470.00,0.0433
3469.50,0.0432
3469.00,0.0432
3468.50,0.0432
3468.00,0.0431
3467.50,0.0431
3467.00,0.0431
3466.50,0.0431
3466.00,0.0431
3465.50,0.0431
3465.00,0.0430
3464.50,0.0430
3464.00,0.0430
3463.50,0.0430
3463.00,0.0430
3462.50,0.0430
3462.00,0.0430
3461.50,0.0429
3461.00,0.0429
3460.50,0.0429
3460.00,0.0428
3459.50,0.0428
3459.00,0.0428
3458.50,0.0428
3458.00,0.0427
3457.50,0.0427
3457.00,0.0427
3456.50,0.0427
3456.00,0.0427
3455.50,0.0426
3455.00,0.0426
3454.50,0.0426
3454.00,0.0426
3453.50,0.0425
3453.00,0.0425
3452.50,0.0425
3452.00,0.0424
3451.50,0.0424
3451.00,0.0424
3450.50,0.0424
3450.00,0.0423
3449.50,0.0423
3449.00,0.0423
3448.50,0.0423
3448.00,0.0423
3447.50,0.0423
3447.00,0.0423
3446.50,0.0422
3446.00,0.0422
3445.50,0.0421
3445.00,0.0421
3444.50,0.0421
3444.00,0.0421
3443.50,0.0420
3443.00,0.0420
3442.50,0.0420
3442.00,0.0420
3441.50,0.0420
3441.00,0.0419
3440.50,0.0419
3440.00,0.0419
3439.50,0.0419
3439.00,0.0418
3438.50,0.0418
3438.00,0.0418
3437.50,0.0418
3437.00,0.0417
3436.50,0.0417
3436.00,0.0417
3435.50,0.0417
3435.00,0.0416
3434.50,0.0416
3434.00,0.0416
3433.50,0.0416
3433.00,0.0416
3432.50,0.0416
3432.00,0.0416
3431.50,0.0415
3431.00,0.0415
3430.50,0.0415
3430.00,0.0415
3429.50,0.0414
3429.00,0.0414
3428.50,0.0414
3428.00,0.0414
3427.50,0.0414
3427.00,0.0414
3426.50,0.0414
3426.00,0.0414
3425.50,0.0413
3425.00,0.0413
3424.50,0.0413
3424.00,0.0413
3423.50,0.0412
3423.00,0.0412
3422.50,0.0412
3422.00,0.0412
3421.50,0.0412
3421.00,0.0412
3420.50,0.0412
3420.00,0.0412
3419.50,0.0411
3419.00,0.0411
3418.50,0.0411
3418.00,0.0411
3417.50,0.0411
3417.00,0.0411
3416.50,0.0410
3416.00,0.0410
3415.50,0.0410
3415.00,0.0410
3414.50,0.0410
3414.00,0.0410
3413.50,0.0409
3413.00,0.0409
3412.50,0.0409
3412.00,0.0409
3411.50,0.0409
3411.00,0.0409
3410.50,0.0409
3410.00,0.0409
3409.50,0.0408
3409.00,0.0408
3408.50,0.0408
3408.00,0.0408
3407.50,0.0408
3407.00,0.0408
3406.50,0.0407
3406.00,0.0407
3405.50,0.0407
3405.00,0.0407
3404.50,0.0407
3404.00,0.0407
3403.50,0.0407
3403.00,0.0406
3402.50,0.0406
3402.00,0.0406
3401.50,0.0406
3401.00,0.0405
3400.50,0.0405
3400.00,0.0405
3399.50,0.0405
3399.00,0.0405
3398.50,0.0405
3398.00,0.0405
3397.50,0.0405
3397.00,0.0405
3396.50,0.0405
3396.00,0.0405
3395.50,0.0405
3395.00,0.0404
3394.50,0.0404
3394.00,0.0404
3393.50,0.0404
3393.00,0.0404
3392.50,0.0404
3392.00,0.0404
3391.50,0.0403
3391.00,0.0403
3390.50,0.0403
3390.00,0.0403
3389.50,0.0403
3389.00,0.0403
3388.50,0.0403
3388.00,0.0403
3387.50,0.0403
3387.00,0.0403
3386.50,0.0403
3386.00,0.0403
3385.50,0.0403
3385.00,0.0403
3384.50,0.0403
3384.00,0.0402
3383.50,0.0402
3383.00,0.0402
3382.50,0.0402
3382.00,0.0402
3381.50,0.0402
3381.00,0.0402
3380.50,0.0401
3380.00,0.0401
3379.50,0.0401
3379.00,0.0401
3378.50,0.0401
3378.00,0.0401
3377.50,0.0401
3377.00,0.0401
3376.50,0.0401
3376.00,0.0401
3375.50,0.0401
3375.00,0.0401
3374.50,0.0401
3374.00,0.0401
3373.50,0.0401
3373.00,0.0401
3372.50,0.0401
3372.00,0.0400
3371.50,0.0400
3371.00,0.0400
3370.50,0.0400
3370.00,0.0400
3369.50,0.0400
3369.00,0.0400
3368.50,0.0400
3368.00,0.0400
3367.50,0.0400
3367.00,0.0400
3366.50,0.0400
3366.00,0.0400
3365.50,0.0400
3365.00,0.0400
3364.50,0.0400
3364.00,0.0400
3363.50,0.0400
3363.00,0.0400
3362.50,0.0400
3362.00,0.0400
3361.50,0.0400
3361.00,0.0399
3360.50,0.0399
3360.00,0.0399
3359.50,0.0399
3359.00,0.0399
3358.50,0.0399
3358.00,0.0399
3357.50,0.0399
3357.00,0.0399
3356.50,0.0399
3356.00,0.0399
3355.50,0.0399
3355.00,0.0399
3354.50,0.0399
3354.00,0.0399
3353.50,0.0399
3353.00,0.0399
3352.50,0.0399
3352.00,0.0398
3351.50,0.0398
3351.00,0.0398
3350.50,0.0398
3350.00,0.0398
3349.50,0.0398
3349.00,0.0398
3348.50,0.0398
3348.00,0.0398
3347.50,0.0398
3347.00,0.0398
3346.50,0.0397
3346.00,0.0397
3345.50,0.0397
3345.00,0.0397
3344.50,0.0397
3344.00,0.0397
3343.50,0.0397
3343.00,0.0397
3342.50,0.0397
3342.00,0.0397
3341.50,0.0397
3341.00,0.0397
3340.50,0.0397
3340.00,0.0396
3339.50,0.0396
3339.00,0.0396
3338.50,0.0396
3338.00,0.0396
3337.50,0.0396
3337.00,0.0396
3336.50,0.0396
3336.00,0.0396
3335.50,0.0396
3335.00,0.0396
3334.50,0.0396
3334.00,0.0395
3333.50,0.0395
3333.00,0.0395
3332.50,0.0395
3332.00,0.0395
3331.50,0.0395
3331.00,0.0395
3330.50,0.0395
3330.00,0.0395
3329.50,0.0394
3329.00,0.0394
3328.50,0.0394
3328.00,0.0394
3327.50,0.0394
3327.00,0.0394
3326.50,0.0394
3326.00,0.0394
3325.50,0.0394
3325.00,0.0394
3324.50,0.0394
3324.00,0.0394
3323.50,0.0394
3323.00,0.0394
3322.50,0.0393
3322.00,0.0393
3321.50,0.0393
3321.00,0.0393
3320.50,0.0393
3320.00,0.0393
3319.50,0.0393
3319.00,0.0393
3318.50,0.0393
3318.00,0.0393
3317.50,0.0393
3317.00,0.0392
3316.50,0.0392
3316.00,0.0392
3315.50,0.0392
3315.00,0.0392
3314.50,0.0392
3314.00,0.0392
3313.50,0.0392
3313.00,0.0392
3312.50,0.0392
3312.00,0.0392
3311.50,0.0392
3311.00,0.0392
3310.50,0.0391
3310.00,0.0391
3309.50,0.0391
3309.00,0.0391
3308.50,0.0391
3308.00,0.0391
3307.50,0.0391
3307.00,0.0391
3306.50,0.0391
3306.00,0.0391
3305.50,0.0391
3305.00,0.0391
3304.50,0.0391
3304.00,0.0391
3303.50,0.0391
3303.00,0.0391
3302.50,0.0391
3302.00,0.0391
3301.50,0.0390
3301.00,0.0390
3300.50,0.0390
3300.00,0.0390
3299.50,0.0390
3299.00,0.0390
3298.50,0.0390
3298.00,0.0390
3297.50,0.0390
3297.00,0.0390
3296.50,0.0390
3296.00,0.0390
3295.50,0.0390
3295.00,0.0390
3294.50,0.0390
3294.00,0.0390
3293.50,0.0390
3293.00,0.0390
3292.50,0.0390
3292.00,0.0389
3291.50,0.0389
3291.00,0.0389
3290.50,0.0389
3290.00,0.0389
3289.50,0.0389
3289.00,0.0389
3288.50,0.0389
3288.00,0.0389
3287.50,0.0389
3287.00,0.0389
3286.50,0.0389
3286.00,0.0389
3285.50,0.0389
3285.00,0.0389
3284.50,0.0389
3284.00,0.0389
3283.50,0.0389
3283.00,0.0389
3282.50,0.0389
3282.00,0.0389
3281.50,0.0389
3281.00,0.0389
3280.50,0.0389
3280.00,0.0389
3279.50,0.0389
3279.00,0.0389
3278.50,0.0389
3278.00,0.0389
3277.50,0.0389
3277.00,0.0389
3276.50,0.0389
3276.00,0.0389
3275.50,0.0389
3275.00,0.0389
3274.50,0.0389
3274.00,0.0389
3273.50,0.0389
3273.00,0.0389
3272.50,0.0389
3272.00,0.0389
3271.50,0.0389
3271.00,0.0389
3270.50,0.0389
3270.00,0.0389
3269.50,0.0389
3269.00,0.0389
3268.50,0.0389
3268.00,0.0389
3267.50,0.0389
3267.00,0.0389
3266.50,0.0389
3266.00,0.0389
3265.50,0.0389
3265.00,0.0389
3264.50,0.0389
3264.00,0.0389
3263.50,0.0389
3263.00,0.0389
3262.50,0.0389
3262.00,0.0389
3261.50,0.0389
3261.00,0.0389
3260.50,0.0389
3260.00,0.0389
3259.50,0.0389
3259.00,0.0389
3258.50,0.0389
3258.00,0.0389
3257.50,0.0389
3257.00,0.0390
3256.50,0.0390
3256.00,0.0389
3255.50,0.0389
3255.00,0.0390
3254.50,0.0390
3254.00,0.0390
3253.50,0.0390
3253.00,0.0390
3252.50,0.0390
3252.00,0.0390
3251.50,0.0390
3251.00,0.0390
3250.50,0.0390
3250.00,0.0390
3249.50,0.0390
3249.00,0.0390
3248.50,0.0390
3248.00,0.0390
3247.50,0.0390
3247.00,0.0390
3246.50,0.0390
3246.00,0.0390
3245.50,0.0390
3245.00,0.0390
3244.50,0.0390
3244.00,0.0391
3243.50,0.0391
3243.00,0.0391
3242.50,0.0391
3242.00,0.0391
3241.50,0.0391
3241.00,0.0391
3240.50,0.0391
3240.00,0.0391
3239.50,0.0391
3239.00,0.0391
3238.50,0.0391
3238.00,0.0391
3237.50,0.0391
3237.00,0.0391
3236.50,0.0392
3236.00,0.0392
3235.50,0.0392
3235.00,0.0392
3234.50,0.0392
3234.00,0.0392
3233.50,0.0392
3233.00,0.0392
3232.50,0.0392
3232.00,0.0392
3231.50,0.0392
3231.00,0.0393
3230.50,0.0393
3230.00,0.0393
3229.50,0.0393
3229.00,0.0393
3228.50,0.0393
3228.00,0.0393
3227.50,0.0393
3227.00,0.0394
3226.50,0.0394
3226.00,0.0394
3225.50,0.0394
3225.00,0.0394
3224.50,0.0394
3224.00,0.0394
3223.50,0.0394
3223.00,0.0394
3222.50,0.0394
3222.00,0.0394
3221.50,0.0394
3221.00,0.0394
3220.50,0.0394
3220.00,0.0395
3219.50,0.0395
3219.00,0.0395
3218.50,0.0395
3218.00,0.0395
3217.50,0.0395
3217.00,0.0395
3216.50,0.0395
3216.00,0.0395
3215.50,0.0395
3215.00,0.0395
3214.50,0.0395
3214.00,0.0396
3213.50,0.0396
3213.00,0.0396
3212.50,0.0396
3212.00,0.0396
3211.50,0.0396
3211.00,0.0396
3210.50,0.0396
3210.00,0.0396
3209.50,0.0396
3209.00,0.0397
3208.50,0.0397
3208.00,0.0397
3207.50,0.0397
3207.00,0.0397
3206.50,0.0397
3206.00,0.0397
3205.50,0.0398
3205.00,0.0398
3204.50,0.0398
3204.00,0.0398
3203.50,0.0398
3203.00,0.0398
3202.50,0.0399
3202.00,0.0399
3201.50,0.0399
3201.00,0.0399
3200.50,0.0399
3200.00,0.0399
3199.50,0.0400
3199.00,0.0400
3198.50,0.0400
3198.00,0.0400
3197.50,0.0400
3197.00,0.0400
3196.50,0.0401
3196.00,0.0401
3195.50,0.0401
3195.00,0.0401
3194.50,0.0401
3194.00,0.0402
3193.50,0.0402
3193.00,0.0402
3192.50,0.0403
3192.00,0.0403
3191.50,0.0403
3191.00,0.0403
3190.50,0.0404
3190.00,0.0404
3189.50,0.0404
3189.00,0.0405
3188.50,0.0405
3188.00,0.0405
3187.50,0.0406
3187.00,0.0406
3186.50,0.0406
3186.00,0.0406
3185.50,0.0406
3185.00,0.0406
3184.50,0.0407
3184.00,0.0407
3183.50,0.0406
3183.00,0.0406
3182.50,0.0406
3182.00,0.0407
3181.50,0.0407
3181.00,0.0406
3180.50,0.0406
3180.00,0.0406
3179.50,0.0406
3179.00,0.0406
3178.50,0.0406
3178.00,0.0406
3177.50,0.0406
3177.00,0.0406
3176.50,0.0406
3176.00,0.0406
3175.50,0.0406
3175.00,0.0406
3174.50,0.0407
3174.00,0.0407
3173.50,0.0407
3173.00,0.0407
3172.50,0.0407
3172.00,0.0407
3171.50,0.0408
3171.00,0.0408
3170.50,0.0408
3170.00,0.0408
3169.50,0.0408
3169.00,0.0408
3168.50,0.0409
3168.00,0.0409
3167.50,0.0409
3167.00,0.0410
3166.50,0.0410
3166.00,0.0410
3165.50,0.0410
3165.00,0.0411
3164.50,0.0411
3164.00,0.0411
3163.50,0.0411
3163.00,0.0412
3162.50,0.0412
3162.00,0.0412
3161.50,0.0413
3161.00,0.0413
3160.50,0.0413
3160.00,0.0414
3159.50,0.0414
3159.00,0.0414
3158.50,0.0415
3158.00,0.0415
3157.50,0.0416
3157.00,0.0416
3156.50,0.0416
3156.00,0.0417
3155.50,0.0417
3155.00,0.0417
3154.50,0.0418
3154.00,0.0418
3153.50,0.0419
3153.00,0.0419
3152.50,0.0419
3152.00,0.0420
3151.50,0.0420
3151.00,0.0421
3150.50,0.0422
3150.00,0.0422
3149.50,0.0423
3149.00,0.0423
3148.50,0.0424
3148.00,0.0424
3147.50,0.0425
3147.00,0.0425
3146.50,0.0426
3146.00,0.0426
3145.50,0.0427
3145.00,0.0427
3144.50,0.0428
3144.00,0.0429
3143.50,0.0429
3143.00,0.0430
3142.50,0.0430
3142.00,0.0431
3141.50,0.0432
3141.00,0.0432
3140.50,0.0433
3140.00,0.0434
3139.50,0.0434
3139.00,0.0435
3138.50,0.0436
3138.00,0.0437
3137.50,0.0438
3137.00,0.0438
3136.50,0.0439
3136.00,0.0440
3135.50,0.0441
3135.00,0.0442
3134.50,0.0443
3134.00,0.0444
3133.50,0.0444
3133.00,0.0445
3132.50,0.0446
3132.00,0.0447
3131.50,0.0448
3131.00,0.0449
3130.50,0.0450
3130.00,0.0450
3129.50,0.0451
3129.00,0.0452
3128.50,0.0453
3128.00,0.0454
3127.50,0.0455
3127.00,0.0456
3126.50,0.0457
3126.00,0.0458
3125.50,0.0459
3125.00,0.0459
3124.50,0.0460
3124.00,0.0461
3123.50,0.0462
3123.00,0.0462
3122.50,0.0463
3122.00,0.0464
3121.50,0.0465
3121.00,0.0465
3120.50,0.0466
3120.00,0.0467
3119.50,0.0467
3119.00,0.0468
3118.50,0.0469
3118.00,0.0469
3117.50,0.0470
3117.00,0.0471
3116.50,0.0471
3116.00,0.0472
3115.50,0.0472
3115.00,0.0473
3114.50,0.0473
3114.00,0.0474
3113.50,0.0475
3113.00,0.0475
3112.50,0.0476
3112.00,0.0476
3111.50,0.0476
3111.00,0.0477
3110.50,0.0477
3110.00,0.0477
3109.50,0.0477
3109.00,0.0478
3108.50,0.0478
3108.00,0.0478
3107.50,0.0478
3107.00,0.0479
3106.50,0.0479
3106.00,0.0479
3105.50,0.0479
3105.00,0.0479
3104.50,0.0479
3104.00,0.0479
3103.50,0.0479
3103.00,0.0479
3102.50,0.0479
3102.00,0.0479
3101.50,0.0479
3101.00,0.0479
3100.50,0.0479
3100.00,0.0480
3099.50,0.0480
3099.00,0.0480
3098.50,0.0480
3098.00,0.0480
3097.50,0.0480
3097.00,0.0480
3096.50,0.0480
3096.00,0.0480
3095.50,0.0480
3095.00,0.0480
3094.50,0.0480
3094.00,0.0480
3093.50,0.0480
3093.00,0.0481
3092.50,0.0481
3092.00,0.0481
3091.50,0.0481
3091.00,0.0481
3090.50,0.0481
3090.00,0.0481
3089.50,0.0481
3089.00,0.0482
3088.50,0.0482
3088.00,0.0482
3087.50,0.0482
3087.00,0.0482
3086.50,0.0483
3086.00,0.0483
3085.50,0.0483
3085.00,0.0483
3084.50,0.0484
3084.00,0.0484
3083.50,0.0485
3083.00,0.0485
3082.50,0.0485
3082.00,0.0486
3081.50,0.0486
3081.00,0.0486
3080.50,0.0487
3080.00,0.0487
3079.50,0.0488
3079.00,0.0488
3078.50,0.0489
3078.00,0.0489
3077.50,0.0490
3077.00,0.0491
3076.50,0.0491
3076.00,0.0492
3075.50,0.0492
3075.00,0.0493
3074.50,0.0494
3074.00,0.0494
3073.50,0.0495
3073.00,0.0496
3072.50,0.0497
3072.00,0.0498
3071.50,0.0499
3071.00,0.0499
3070.50,0.0500
3070.00,0.0501
3069.50,0.0502
3069.00,0.0503
3068.50,0.0504
3068.00,0.0506
3067.50,0.0507
3067.00,0.0508
3066.50,0.0510
3066.00,0.0512
3065.50,0.0514
3065.00,0.0515
3064.50,0.0517
3064.00,0.0519
3063.50,0.0521
3063.00,0.0524
3062.50,0.0526
3062.00,0.0528
3061.50,0.0531
3061.00,0.0534
3060.50,0.0537
3060.00,0.0540
3059.50,0.0543
3059.00,0.0546
3058.50,0.0549
3058.00,0.0552
3057.50,0.0555
3057.00,0.0558
3056.50,0.0561
3056.00,0.0564
3055.50,0.0566
3055.00,0.0568
3054.50,0.0570
3054.00,0.0571
3053.50,0.0572
3053.00,0.0572
3052.50,0.0571
3052.00,0.0571
3051.50,0.0569
3051.00,0.0568
3050.50,0.0565
3050.00,0.0563
3049.50,0.0560
3049.00,0.0557
3048.50,0.0553
3048.00,0.0550
3047.50,0.0546
3047.00,0.0543
3046.50,0.0540
3046.00,0.0537
3045.50,0.0535
3045.00,0.0533
3044.50,0.0530
3044.00,0.0529
3043.50,0.0527
3043.00,0.0525
3042.50,0.0524
3042.00,0.0523
3041.50,0.0522
3041.00,0.0521
3040.50,0.0520
3040.00,0.0520
3039.50,0.0519
3039.00,0.0519
3038.50,0.0518
3038.00,0.0518
3037.50,0.0518
3037.00,0.0517
3036.50,0.0517
3036.00,0.0517
3035.50,0.0517
3035.00,0.0517
3034.50,0.0517
3034.00,0.0517
3033.50,0.0517
3033.00,0.0517
3032.50,0.0517
3032.00,0.0518
3031.50,0.0518
3031.00,0.0518
3030.50,0.0519
3030.00,0.0520
3029.50,0.0520
3029.00,0.0521
3028.50,0.0522
3028.00,0.0523
3027.50,0.0524
3027.00,0.0525
3026.50,0.0526
3026.00,0.0527
3025.50,0.0528
3025.00,0.0530
3024.50,0.0531
3024.00,0.0533
3023.50,0.0534
3023.00,0.0536
3022.50,0.0538
3022.00,0.0540
3021.50,0.0542
3021.00,0.0544
3020.50,0.0546
3020.00,0.0549
3019.50,0.0551
3019.00,0.0553
3018.50,0.0555
3018.00,0.0556
3017.50,0.0558
3017.00,0.0560
3016.50,0.0562
3016.00,0.0563
3015.50,0.0565
3015.00,0.0566
3014.50,0.0567
3014.00,0.0568
3013.50,0.0569
3013.00,0.0570
3012.50,0.0571
3012.00,0.0572
3011.50,0.0572
3011.00,0.0573
3010.50,0.0574
3010.00,0.0575
3009.50,0.0576
3009.00,0.0577
3008.50,0.0579
3008.00,0.0580
3007.50,0.0582
3007.00,0.0583
3006.50,0.0585
3006.00,0.0587
3005.50,0.0590
3005.00,0.0592
3004.50,0.0595
3004.00,0.0598
3003.50,0.0601
3003.00,0.0605
3002.50,0.0608
3002.00,0.0612
3001.50,0.0616
3001.00,0.0621
3000.50,0.0625
3000.00,0.0630
2999.50,0.0636
2999.00,0.0642
2998.50,0.0648
2998.00,0.0654
2997.50,0.0661
2997.00,0.0669
2996.50,0.0677
2996.00,0.0685
2995.50,0.0694
2995.00,0.0704
2994.50,0.0714
2994.00,0.0724
2993.50,0.0735
2993.00,0.0747
2992.50,0.0760
2992.00,0.0773
2991.50,0.0787
2991.00,0.0802
2990.50,0.0817
2990.00,0.0834
2989.50,0.0852
2989.00,0.0871
2988.50,0.0891
2988.00,0.0912
2987.50,0.0934
2987.00,0.0958
2986.50,0.0983
2986.00,0.1009
2985.50,0.1037
2985.00,0.1066
2984.50,0.1097
2984.00,0.1128
2983.50,0.1159
2983.00,0.1191
2982.50,0.1228
2982.00,0.1269
2981.50,0.1317
2981.00,0.1370
2980.50,0.1428
2980.00,0.1489
2979.50,0.1554
2979.00,0.1624
2978.50,0.1698
2978.00,0.1777
2977.50,0.1860
2977.00,0.1948
2976.50,0.2042
2976.00,0.2140
2975.50,0.2244
2975.00,0.2353
2974.50,0.2467
2974.00,0.2586
2973.50,0.2711
2973.00,0.2840
2972.50,0.2974
2972.00,0.3112
2971.50,0.3253
2971.00,0.3398
2970.50,0.3547
2970.00,0.3700
2969.50,0.3852
2969.00,0.4003
2968.50,0.4150
2968.00,0.4291
2967.50,0.4425
2967.00,0.4551
2966.50,0.4667
2966.00,0.4772
2965.50,0.4864
2965.00,0.4941
2964.50,0.5002
2964.00,0.5045
2963.50,0.5069
2963.00,0.5073
2962.50,0.5059
2962.00,0.5025
2961.50,0.4971
2961.00,0.4898
2960.50,0.4808
2960.00,0.4702
2959.50,0.4582
2959.00,0.4450
2958.50,0.4308
2958.00,0.4159
2957.50,0.4005
2957.00,0.3848
2956.50,0.3690
2956.00,0.3534
2955.50,0.3380
2955.00,0.3231
2954.50,0.3086
2954.00,0.2947
2953.50,0.2814
2953.00,0.2688
2952.50,0.2570
2952.00,0.2458
2951.50,0.2353
2951.00,0.2254
2950.50,0.2162
2950.00,0.2075
2949.50,0.1993
2949.00,0.1916
2948.50,0.1844
2948.00,0.1776
2947.50,0.1713
2947.00,0.1653
2946.50,0.1598
2946.00,0.1546
2945.50,0.1497
2945.00,0.1452
2944.50,0.1409
2944.00,0.1369
2943.50,0.1331
2943.00,0.1296
2942.50,0.1264
2942.00,0.1233
2941.50,0.1204
2941.00,0.1177
2940.50,0.1151
2940.00,0.1127
2939.50,0.1104
2939.00,0.1083
2938.50,0.1063
2938.00,0.1044
2937.50,0.1027
2937.00,0.1010
2936.50,0.0995
2936.00,0.0980
2935.50,0.0967
2935.00,0.0954
2934.50,0.0942
2934.00,0.0930
2933.50,0.0920
2933.00,0.0910
2932.50,0.0900
2932.00,0.0892
2931.50,0.0884
2931.00,0.0877
2930.50,0.0870
2930.00,0.0864
2929.50,0.0859
2929.00,0.0854
2928.50,0.0850
2928.00,0.0847
2927.50,0.0844
2927.00,0.0841
2926.50,0.0840
2926.00,0.0839
2925.50,0.0838
2925.00,0.0838
2924.50,0.0839
2924.00,0.0840
2923.50,0.0842
2923.00,0.0845
2922.50,0.0848
2922.00,0.0852
2921.50,0.0856
2921.00,0.0861
2920.50,0.0867
2920.00,0.0873
2919.50,0.0880
2919.00,0.0887
2918.50,0.0895
2918.00,0.0903
2917.50,0.0912
2917.00,0.0922
2916.50,0.0932
2916.00,0.0942
2915.50,0.0953
2915.00,0.0964
2914.50,0.0975
2914.00,0.0987
2913.50,0.1000
2913.00,0.1015
2912.50,0.1031
2912.00,0.1048
2911.50,0.1066
2911.00,0.1086
2910.50,0.1106
2910.00,0.1126
2909.50,0.1147
2909.00,0.1167
2908.50,0.1186
2908.00,0.1205
2907.50,0.1221
2907.00,0.1236
2906.50,0.1248
2906.00,0.1257
2905.50,0.1263
2905.00,0.1265
2904.50,0.1265
2904.00,0.1261
2903.50,0.1254
2903.00,0.1244
2902.50,0.1231
2902.00,0.1215
2901.50,0.1198
2901.00,0.1178
2900.50,0.1157
2900.00,0.1135
2899.50,0.1113
2899.00,0.1089
2898.50,0.1066
2898.00,0.1042
2897.50,0.1019
2897.00,0.0996
2896.50,0.0974
2896.00,0.0952
2895.50,0.0931
2895.00,0.0911
2894.50,0.0892
2894.00,0.0873
2893.50,0.0855
2893.00,0.0839
2892.50,0.0823
2892.00,0.0807
2891.50,0.0793
2891.00,0.0779
2890.50,0.0767
2890.00,0.0754
2889.50,0.0743
2889.00,0.0732
2888.50,0.0722
2888.00,0.0712
2887.50,0.0703
2887.00,0.0695
2886.50,0.0687
2886.00,0.0679
2885.50,0.0671
2885.00,0.0664
2884.50,0.0657
2884.00,0.0650
2883.50,0.0644
2883.00,0.0638
2882.50,0.0633
2882.00,0.0628
2881.50,0.0624
2881.00,0.0620
2880.50,0.0616
2880.00,0.0612
2879.50,0.0609
2879.00,0.0605
2878.50,0.0601
2878.00,0.0598
2877.50,0.0594
2877.00,0.0591
2876.50,0.0588
2876.00,0.0584
2875.50,0.0581
2875.00,0.0578
2874.50,0.0575
2874.00,0.0572
2873.50,0.0569
2873.00,0.0566
2872.50,0.0563
2872.00,0.0561
2871.50,0.0558
2871.00,0.0555
2870.50,0.0553
2870.00,0.0551
2869.50,0.0548
2869.00,0.0546
2868.50,0.0544
2868.00,0.0543
2867.50,0.0541
2867.00,0.0540
2866.50,0.0538
2866.00,0.0537
2865.50,0.0536
2865.00,0.0535
2864.50,0.0534
2864.00,0.0533
2863.50,0.0532
2863.00,0.0531
2862.50,0.0531
2862.00,0.0531
2861.50,0.0530
2861.00,0.0530
2860.50,0.0530
2860.00,0.0530
2859.50,0.0530
2859.00,0.0530
2858.50,0.0530
2858.00,0.0530
2857.50,0.0531
2857.00,0.0531
2856.50,0.0532
2856.00,0.0533
2855.50,0.0533
2855.00,0.0534
2854.50,0.0536
2854.00,0.0537
2853.50,0.0539
2853.00,0.0541
2852.50,0.0544
2852.00,0.0546
2851.50,0.0549
2851.00,0.0551
2850.50,0.0554
2850.00,0.0555
2849.50,0.0556
2849.00,0.0555
2848.50,0.0553
2848.00,0.0550
2847.50,0.0547
2847.00,0.0543
2846.50,0.0538
2846.00,0.0534
2845.50,0.0531
2845.00,0.0528
2844.50,0.0525
2844.00,0.0522
2843.50,0.0520
2843.00,0.0518
2842.50,0.0516
2842.00,0.0515
2841.50,0.0513
2841.00,0.0512
2840.50,0.0511
2840.00,0.0510
2839.50,0.0508
2839.00,0.0507
2838.50,0.0506
2838.00,0.0506
2837.50,0.0505
2837.00,0.0503
2836.50,0.0502
2836.00,0.0501
2835.50,0.0500
2835.00,0.0499
2834.50,0.0498
2834.00,0.0497
2833.50,0.0497
2833.00,0.0496
2832.50,0.0495
2832.00,0.0494
2831.50,0.0493
2831.00,0.0492
2830.50,0.0492
2830.00,0.0491
2829.50,0.0490
2829.00,0.0490
2828.50,0.0489
2828.00,0.0489
2827.50,0.0488
2827.00,0.0488
2826.50,0.0488
2826.00,0.0487
2825.50,0.0487
2825.00,0.0487
2824.50,0.0487
2824.00,0.0487
2823.50,0.0487
2823.00,0.0487
2822.50,0.0487
2822.00,0.0488
2821.50,0.0488
2821.00,0.0488
2820.50,0.0488
2820.00,0.0489
2819.50,0.0489
2819.00,0.0489
2818.50,0.0490
2818.00,0.0490
2817.50,0.0490
2817.00,0.0491
2816.50,0.0491
2816.00,0.0491
2815.50,0.0492
2815.00,0.0492
2814.50,0.0492
2814.00,0.0493
2813.50,0.0493
2813.00,0.0493
2812.50,0.0493
2812.00,0.0493
2811.50,0.0493
2811.00,0.0494
2810.50,0.0493
2810.00,0.0493
2809.50,0.0493
2809.00,0.0493
2808.50,0.0493
2808.00,0.0493
2807.50,0.0493
2807.00,0.0493
2806.50,0.0492
2806.00,0.0492
2805.50,0.0492
2805.00,0.0491
2804.50,0.0491
2804.00,0.0491
2803.50,0.0491
2803.00,0.0490
2802.50,0.0490
2802.00,0.0490
2801.50,0.0489
2801.00,0.0489
2800.50,0.0489
2800.00,0.0488
2799.50,0.0488
2799.00,0.0488
2798.50,0.0487
2798.00,0.0487
2797.50,0.0486
2797.00,0.0486
2796.50,0.0485
2796.00,0.0484
2795.50,0.0483
2795.00,0.0483
2794.50,0.0482
2794.00,0.0480
2793.50,0.0479
2793.00,0.0478
2792.50,0.0476
2792.00,0.0475
2791.50,0.0473
2791.00,0.0471
2790.50,0.0469
2790.00,0.0467
2789.50,0.0465
2789.00,0.0462
2788.50,0.0460
2788.00,0.0457
2787.50,0.0455
2787.00,0.0452
2786.50,0.0449
2786.00,0.0446
2785.50,0.0444
2785.00,0.0441
2784.50,0.0438
2784.00,0.0435
2783.50,0.0433
2783.00,0.0430
2782.50,0.0428
2782.00,0.0425
2781.50,0.0423
2781.00,0.0420
2780.50,0.0418
2780.00,0.0416
2779.50,0.0413
2779.00,0.0411
2778.50,0.0410
2778.00,0.0408
2777.50,0.0406
2777.00,0.0404
2776.50,0.0402
2776.00,0.0400
2775.50,0.0399
2775.00,0.0397
2774.50,0.0396
2774.00,0.0394
2773.50,0.0393
2773.00,0.0391
2772.50,0.0390
2772.00,0.0389
2771.50,0.0387
2771.00,0.0386
2770.50,0.0385
2770.00,0.0384
2769.50,0.0383
2769.00,0.0382
2768.50,0.0381
2768.00,0.0380
2767.50,0.0379
2767.00,0.0378
2766.50,0.0377
2766.00,0.0376
2765.50,0.0375
2765.00,0.0374
2764.50,0.0374
2764.00,0.0373
2763.50,0.0372
2763.00,0.0371
2762.50,0.0371
2762.00,0.0370
2761.50,0.0369
2761.00,0.0369
2760.50,0.0368
2760.00,0.0368
2759.50,0.0367
2759.00,0.0367
2758.50,0.0366
2758.00,0.0365
2757.50,0.0365
2757.00,0.0364
2756.50,0.0364
2756.00,0.0364
2755.50,0.0363
2755.00,0.0363
2754.50,0.0362
2754.00,0.0362
2753.50,0.0361
2753.00,0.0361
2752.50,0.0360
2752.00,0.0360
2751.50,0.0360
2751.00,0.0359
2750.50,0.0359
2750.00,0.0359
2749.50,0.0358
2749.00,0.0358
2748.50,0.0358
2748.00,0.0357
2747.50,0.0357
2747.00,0.0357
2746.50,0.0356
2746.00,0.0356
2745.50,0.0356
2745.00,0.0355
2744.50,0.0355
2744.00,0.0355
2743.50,0.0355
2743.00,0.0354
2742.50,0.0354
2742.00,0.0353
2741.50,0.0353
2741.00,0.0353
2740.50,0.0353
2740.00,0.0352
2739.50,0.0352
2739.00,0.0352
2738.50,0.0352
2738.00,0.0352
2737.50,0.0351
2737.00,0.0351
2736.50,0.0351
2736.00,0.0351
2735.50,0.0350
2735.00,0.0350
2734.50,0.0350
2734.00,0.0350
2733.50,0.0350
2733.00,0.0350
2732.50,0.0349
2732.00,0.0349
2731.50,0.0349
2731.00,0.0349
2730.50,0.0349
2730.00,0.0349
2729.50,0.0349
2729.00,0.0349
2728.50,0.0348
2728.00,0.0348
2727.50,0.0348
2727.00,0.0348
2726.50,0.0348
2726.00,0.0348
2725.50,0.0348
2725.00,0.0348
2724.50,0.0348
2724.00,0.0347
2723.50,0.0347
2723.00,0.0347
2722.50,0.0347
2722.00,0.0347
2721.50,0.0347
2721.00,0.0347
2720.50,0.0347
2720.00,0.0347
2719.50,0.0347
2719.00,0.0347
2718.50,0.0347
2718.00,0.0347
2717.50,0.0347
2717.00,0.0347
2716.50,0.0347
2716.00,0.0347
2715.50,0.0347
2715.00,0.0347
2714.50,0.0347
2714.00,0.0347
2713.50,0.0347
2713.00,0.0347
2712.50,0.0347
2712.00,0.0347
2711.50,0.0347
2711.00,0.0347
2710.50,0.0347
2710.00,0.0347
2709.50,0.0347
2709.00,0.0347
2708.50,0.0347
2708.00,0.0347
2707.50,0.0347
2707.00,0.0347
2706.50,0.0347
2706.00,0.0347
2705.50,0.0347
2705.00,0.0347
2704.50,0.0347
2704.00,0.0347
2703.50,0.0347
2703.00,0.0347
2702.50,0.0347
2702.00,0.0347
2701.50,0.0346
2701.00,0.0346
2700.50,0.0346
2700.00,0.0346
2699.50,0.0346
2699.00,0.0346
2698.50,0.0346
2698.00,0.0345
2697.50,0.0345
2697.00,0.0345
2696.50,0.0345
2696.00,0.0345
2695.50,0.0345
2695.00,0.0345
2694.50,0.0345
2694.00,0.0345
2693.50,0.0345
2693.00,0.0345
2692.50,0.0345
2692.00,0.0345
2691.50,0.0345
2691.00,0.0345
2690.50,0.0345
2690.00,0.0345
2689.50,0.0345
2689.00,0.0345
2688.50,0.0345
2688.00,0.0345
2687.50,0.0345
2687.00,0.0345
2686.50,0.0345
2686.00,0.0345
2685.50,0.0346
2685.00,0.0346
2684.50,0.0346
2684.00,0.0346
2683.50,0.0347
2683.00,0.0347
2682.50,0.0347
2682.00,0.0347
2681.50,0.0348
2681.00,0.0348
2680.50,0.0348
2680.00,0.0349
2679.50,0.0349
2679.00,0.0349
2678.50,0.0350
2678.00,0.0350
2677.50,0.0351
2677.00,0.0351
2676.50,0.0352
2676.00,0.0352
2675.50,0.0352
2675.00,0.0353
2674.50,0.0353
2674.00,0.0354
2673.50,0.0354
2673.00,0.0355
2672.50,0.0355
2672.00,0.0356
2671.50,0.0356
2671.00,0.0357
2670.50,0.0357
2670.00,0.0358
2669.50,0.0358
2669.00,0.0358
2668.50,0.0359
2668.00,0.0359
2667.50,0.0360
2667.00,0.0360
2666.50,0.0361
2666.00,0.0361
2665.50,0.0361
2665.00,0.0362
2664.50,0.0362
2664.00,0.0362
2663.50,0.0362
2663.00,0.0362
2662.50,0.0362
2662.00,0.0362
2661.50,0.0362
2661.00,0.0362
2660.50,0.0362
2660.00,0.0362
2659.50,0.0362
2659.00,0.0361
2658.50,0.0361
2658.00,0.0361
2657.50,0.0360
2657.00,0.0360
2656.50,0.0360
2656.00,0.0359
2655.50,0.0359
2655.00,0.0358
2654.50,0.0357
2654.00,0.0357
2653.50,0.0356
2653.00,0.0355
2652.50,0.0355
2652.00,0.0354
2651.50,0.0354
2651.00,0.0353
2650.50,0.0352
2650.00,0.0351
2649.50,0.0351
2649.00,0.0350
2648.50,0.0349
2648.00,0.0349
2647.50,0.0348
2647.00,0.0347
2646.50,0.0347
2646.00,0.0346
2645.50,0.0345
2645.00,0.0345
2644.50,0.0344
2644.00,0.0343
2643.50,0.0343
2643.00,0.0342
2642.50,0.0342
2642.00,0.0341
2641.50,0.0341
2641.00,0.0340
2640.50,0.0340
2640.00,0.0339
2639.50,0.0339
2639.00,0.0339
2638.50,0.0338
2638.00,0.0338
2637.50,0.0338
2637.00,0.0337
2636.50,0.0337
2636.00,0.0336
2635.50,0.0336
2635.00,0.0336
2634.50,0.0336
2634.00,0.0335
2633.50,0.0335
2633.00,0.0335
2632.50,0.0335
2632.00,0.0334
2631.50,0.0334
2631.00,0.0334
2630.50,0.0333
2630.00,0.0333
2629.50,0.0333
2629.00,0.0333
2628.50,0.0333
2628.00,0.0332
2627.50,0.0332
2627.00,0.0332
2626.50,0.0332
2626.00,0.0332
2625.50,0.0332
2625.00,0.0332
2624.50,0.0331
2624.00,0.0331
2623.50,0.0331
2623.00,0.0331
2622.50,0.0331
2622.00,0.0331
2621.50,0.0331
2621.00,0.0330
2620.50,0.0330
2620.00,0.0330
2619.50,0.0330
2619.00,0.0330
2618.50,0.0330
2618.00,0.0330
2617.50,0.0330
2617.00,0.0330
2616.50,0.0330
2616.00,0.0329
2615.50,0.0329
2615.00,0.0329
2614.50,0.0329
2614.00,0.0329
2613.50,0.0329
2613.00,0.0329
2612.50,0.0329
2612.00,0.0329
2611.50,0.0328
2611.00,0.0328
2610.50,0.0328
2610.00,0.0328
2609.50,0.0328
2609.00,0.0328
2608.50,0.0328
2608.00,0.0328
2607.50,0.0328
2607.00,0.0328
2606.50,0.0328
2606.00,0.0327
2605.50,0.0327
2605.00,0.0327
2604.50,0.0327
2604.00,0.0327
2603.50,0.0327
2603.00,0.0327
2602.50,0.0327
2602.00,0.0327
2601.50,0.0327
2601.00,0.0327
2600.50,0.0327
2600.00,0.0327
2599.50,0.0327
2599.00,0.0327
2598.50,0.0327
2598.00,0.0327
2597.50,0.0327
2597.00,0.0327
2596.50,0.0327
2596.00,0.0327
2595.50,0.0326
2595.00,0.0326
2594.50,0.0326
2594.00,0.0327
2593.50,0.0327
2593.00,0.0327
2592.50,0.0327
2592.00,0.0327
2591.50,0.0327
2591.00,0.0327
2590.50,0.0327
2590.00,0.0326
2589.50,0.0326
2589.00,0.0326
2588.50,0.0326
2588.00,0.0326
2587.50,0.0326
2587.00,0.0326
2586.50,0.0326
2586.00,0.0326
2585.50,0.0326
2585.00,0.0326
2584.50,0.0326
2584.00,0.0326
2583.50,0.0326
2583.00,0.0326
2582.50,0.0326
2582.00,0.0326
2581.50,0.0326
2581.00,0.0325
2580.50,0.0325
2580.00,0.0325
2579.50,0.0325
2579.00,0.0325
2578.50,0.0325
2578.00,0.0325
2577.50,0.0325
2577.00,0.0325
2576.50,0.0325
2576.00,0.0325
2575.50,0.0325
2575.00,0.0325
2574.50,0.0325
2574.00,0.0325
2573.50,0.0325
2573.00,0.0325
2572.50,0.0325
2572.00,0.0325
2571.50,0.0325
2571.00,0.0325
2570.50,0.0325
2570.00,0.0325
2569.50,0.0325
2569.00,0.0325
2568.50,0.0325
2568.00,0.0325
2567.50,0.0325
2567.00,0.0325
2566.50,0.0325
2566.00,0.0325
2565.50,0.0325
2565.00,0.0325
2564.50,0.0325
2564.00,0.0325
2563.50,0.0325
2563.00,0.0325
2562.50,0.0325
2562.00,0.0325
2561.50,0.0325
2561.00,0.0325
2560.50,0.0325
2560.00,0.0325
2559.50,0.0325
2559.00,0.0325
2558.50,0.0325
2558.00,0.0325
2557.50,0.0325
2557.00,0.0324
2556.50,0.0324
2556.00,0.0324
2555.50,0.0324
2555.00,0.0324
2554.50,0.0324
2554.00,0.0324
2553.50,0.0324
2553.00,0.0324
2552.50,0.0324
2552.00,0.0324
2551.50,0.0324
2551.00,0.0324
2550.50,0.0324
2550.00,0.0324
2549.50,0.0324
2549.00,0.0324
2548.50,0.0324
2548.00,0.0324
2547.50,0.0324
2547.00,0.0324
2546.50,0.0324
2546.00,0.0324
2545.50,0.0323
2545.00,0.0323
2544.50,0.0323
2544.00,0.0323
2543.50,0.0323
2543.00,0.0323
2542.50,0.0323
2542.00,0.0323
2541.50,0.0323
2541.00,0.0323
2540.50,0.0323
2540.00,0.0323
2539.50,0.0323
2539.00,0.0323
2538.50,0.0324
2538.00,0.0324
2537.50,0.0323
2537.00,0.0323
2536.50,0.0323
2536.00,0.0323
2535.50,0.0323
2535.00,0.0323
2534.50,0.0323
2534.00,0.0323
2533.50,0.0323
2533.00,0.0323
2532.50,0.0323
2532.00,0.0324
2531.50,0.0324
2531.00,0.0324
2530.50,0.0324
2530.00,0.0324
2529.50,0.0324
2529.00,0.0324
2528.50,0.0324
2528.00,0.0324
2527.50,0.0324
2527.00,0.0324
2526.50,0.0324
2526.00,0.0324
2525.50,0.0324
2525.00,0.0325
2524.50,0.0325
2524.00,0.0325
2523.50,0.0325
2523.00,0.0325
2522.50,0.0325
2522.00,0.0325
2521.50,0.0326
2521.00,0.0326
2520.50,0.0326
2520.00,0.0326
2519.50,0.0326
2519.00,0.0326
2518.50,0.0327
2518.00,0.0327
2517.50,0.0327
2517.00,0.0327
2516.50,0.0328
2516.00,0.0328
2515.50,0.0328
2515.00,0.0329
2514.50,0.0329
2514.00,0.0329
2513.50,0.0330
2513.00,0.0330
2512.50,0.0331
2512.00,0.0331
2511.50,0.0332
2511.00,0.0332
2510.50,0.0333
2510.00,0.0334
2509.50,0.0335
2509.00,0.0335
2508.50,0.0337
2508.00,0.0338
2507.50,0.0339
2507.00,0.0340
2506.50,0.0341
2506.00,0.0343
2505.50,0.0344
2505.00,0.0346
2504.50,0.0347
2504.00,0.0349
2503.50,0.0351
2503.00,0.0353
2502.50,0.0354
2502.00,0.0356
2501.50,0.0357
2501.00,0.0358
2500.50,0.0359
2500.00,0.0359
2499.50,0.0360
2499.00,0.0360
2498.50,0.0360
2498.00,0.0359
2497.50,0.0359
2497.00,0.0358
2496.50,0.0357
2496.00,0.0356
2495.50,0.0355
2495.00,0.0354
2494.50,0.0353
2494.00,0.0352
2493.50,0.0350
2493.00,0.0349
2492.50,0.0348
2492.00,0.0347
2491.50,0.0346
2491.00,0.0345
2490.50,0.0343
2490.00,0.0342
2489.50,0.0341
2489.00,0.0340
2488.50,0.0339
2488.00,0.0338
2487.50,0.0338
2487.00,0.0337
2486.50,0.0336
2486.00,0.0335
2485.50,0.0335
2485.00,0.0334
2484.50,0.0333
2484.00,0.0333
2483.50,0.0332
2483.00,0.0332
2482.50,0.0331
2482.00,0.0331
2481.50,0.0331
2481.00,0.0330
2480.50,0.0330
2480.00,0.0329
2479.50,0.0329
2479.00,0.0329
2478.50,0.0328
2478.00,0.0328
2477.50,0.0328
2477.00,0.0327
2476.50,0.0327
2476.00,0.0327
2475.50,0.0327
2475.00,0.0327
2474.50,0.0326
2474.00,0.0326
2473.50,0.0326
2473.00,0.0326
2472.50,0.0326
2472.00,0.0326
2471.50,0.0325
2471.00,0.0325
2470.50,0.0325
2470.00,0.0325
2469.50,0.0325
2469.00,0.0325
2468.50,0.0325
2468.00,0.0324
2467.50,0.0324
2467.00,0.0324
2466.50,0.0324
2466.00,0.0324
2465.50,0.0324
2465.00,0.0324
2464.50,0.0324
2464.00,0.0324
2463.50,0.0324
2463.00,0.0324
2462.50,0.0324
2462.00,0.0323
2461.50,0.0323
2461.00,0.0323
2460.50,0.0323
2460.00,0.0323
2459.50,0.0323
2459.00,0.0323
2458.50,0.0323
2458.00,0.0323
2457.50,0.0323
2457.00,0.0323
2456.50,0.0323
2456.00,0.0323
2455.50,0.0322
2455.00,0.0322
2454.50,0.0322
2454.00,0.0322
2453.50,0.0322
2453.00,0.0322
2452.50,0.0322
2452.00,0.0322
2451.50,0.0322
2451.00,0.0322
2450.50,0.0322
2450.00,0.0322
2449.50,0.0322
2449.00,0.0322
2448.50,0.0322
2448.00,0.0322
2447.50,0.0321
2447.00,0.0321
2446.50,0.0321
2446.00,0.0321
2445.50,0.0321
2445.00,0.0321
2444.50,0.0322
2444.00,0.0321
2443.50,0.0321
2443.00,0.0321
2442.50,0.0321
2442.00,0.0321
2441.50,0.0321
2441.00,0.0321
2440.50,0.0321
2440.00,0.0321
2439.50,0.0321
2439.00,0.0321
2438.50,0.0321
2438.00,0.0321
2437.50,0.0321
2437.00,0.0321
2436.50,0.0320
2436.00,0.0320
2435.50,0.0320
2435.00,0.0320
2434.50,0.0320
2434.00,0.0320
2433.50,0.0320
2433.00,0.0320
2432.50,0.0320
2432.00,0.0320
2431.50,0.0320
2431.00,0.0320
2430.50,0.0320
2430.00,0.0320
2429.50,0.0320
2429.00,0.0320
2428.50,0.0320
2428.00,0.0320
2427.50,0.0320
2427.00,0.0320
2426.50,0.0320
2426.00,0.0320
2425.50,0.0320
2425.00,0.0320
2424.50,0.0320
2424.00,0.0319
2423.50,0.0319
2423.00,0.0319
2422.50,0.0320
2422.00,0.0320
2421.50,0.0319
2421.00,0.0319
2420.50,0.0319
2420.00,0.0319
2419.50,0.0319
2419.00,0.0319
2418.50,0.0319
2418.00,0.0319
2417.50,0.0319
2417.00,0.0319
2416.50,0.0319
2416.00,0.0319
2415.50,0.0319
2415.00,0.0319
2414.50,0.0319
2414.00,0.0319
2413.50,0.0319
2413.00,0.0319
2412.50,0.0319
2412.00,0.0319
2411.50,0.0319
2411.00,0.0319
2410.50,0.0319
2410.00,0.0319
2409.50,0.0319
2409.00,0.0319
2408.50,0.0319
2408.00,0.0319
2407.50,0.0319
2407.00,0.0319
2406.50,0.0319
2406.00,0.0319
2405.50,0.0319
2405.00,0.0319
2404.50,0.0319
2404.00,0.0318
2403.50,0.0318
2403.00,0.0318
2402.50,0.0318
2402.00,0.0318
2401.50,0.0318
2401.00,0.0318
2400.50,0.0318
2400.00,0.0318
2399.50,0.0318
2399.00,0.0318
2398.50,0.0318
2398.00,0.0318
2397.50,0.0318
2397.00,0.0318
2396.50,0.0318
2396.00,0.0318
2395.50,0.0318
2395.00,0.0318
2394.50,0.0318
2394.00,0.0318
2393.50,0.0318
2393.00,0.0318
2392.50,0.0318
2392.00,0.0318
2391.50,0.0318
2391.00,0.0318
2390.50,0.0318
2390.00,0.0318
2389.50,0.0318
2389.00,0.0318
2388.50,0.0318
2388.00,0.0318
2387.50,0.0318
2387.00,0.0318
2386.50,0.0318
2386.00,0.0318
2385.50,0.0318
2385.00,0.0318
2384.50,0.0318
2384.00,0.0318
2383.50,0.0318
2383.00,0.0318
2382.50,0.0318
2382.00,0.0318
2381.50,0.0318
2381.00,0.0318
2380.50,0.0318
2380.00,0.0318
2379.50,0.0318
2379.00,0.0319
2378.50,0.0319
2378.00,0.0319
2377.50,0.0318
2377.00,0.0319
2376.50,0.0319
2376.00,0.0319
2375.50,0.0319
2375.00,0.0319
2374.50,0.0319
2374.00,0.0319
2373.50,0.0319
2373.00,0.0319
2372.50,0.0319
2372.00,0.0319
2371.50,0.0319
2371.00,0.0320
2370.50,0.0320
2370.00,0.0320
2369.50,0.0320
2369.00,0.0320
2368.50,0.0320
2368.00,0.0320
2367.50,0.0320
2367.00,0.0320
2366.50,0.0320
2366.00,0.0320
2365.50,0.0320
2365.00,0.0320
2364.50,0.0320
2364.00,0.0320
2363.50,0.0320
2363.00,0.0320
2362.50,0.0320
2362.00,0.0320
2361.50,0.0320
2361.00,0.0320
2360.50,0.0320
2360.00,0.0320
2359.50,0.0320
2359.00,0.0321
2358.50,0.0321
2358.00,0.0321
2357.50,0.0321
2357.00,0.0322
2356.50,0.0322
2356.00,0.0321
2355.50,0.0321
2355.00,0.0321
2354.50,0.0321
2354.00,0.0321
2353.50,0.0321
2353.00,0.0321
2352.50,0.0322
2352.00,0.0321
2351.50,0.0321
2351.00,0.0321
2350.50,0.0321
2350.00,0.0321
2349.50,0.0321
2349.00,0.0322
2348.50,0.0322
2348.00,0.0322
2347.50,0.0322
2347.00,0.0322
2346.50,0.0322
2346.00,0.0321
2345.50,0.0320
2345.00,0.0320
2344.50,0.0320
2344.00,0.0319
2343.50,0.0318
2343.00,0.0318
2342.50,0.0319
2342.00,0.0319
2341.50,0.0319
2341.00,0.0319
2340.50,0.0320
2340.00,0.0319
2339.50,0.0319
2339.00,0.0319
2338.50,0.0320
2338.00,0.0320
2337.50,0.0319
2337.00,0.0320
2336.50,0.0320
2336.00,0.0319
2335.50,0.0318
2335.00,0.0319
2334.50,0.0320
2334.00,0.0319
2333.50,0.0319
2333.00,0.0319
2332.50,0.0320
2332.00,0.0319
2331.50,0.0318
2331.00,0.0319
2330.50,0.0320
2330.00,0.0319
2329.50,0.0318
2329.00,0.0319
2328.50,0.0320
2328.00,0.0319
2327.50,0.0319
2327.00,0.0320
2326.50,0.0320
2326.00,0.0319
2325.50,0.0319
2325.00,0.0319
2324.50,0.0320
2324.00,0.0319
2323.50,0.0319
2323.00,0.0320
2322.50,0.0320
2322.00,0.0319
2321.50,0.0319
2321.00,0.0320
2320.50,0.0320
2320.00,0.0319
2319.50,0.0319
2319.00,0.0319
2318.50,0.0319
2318.00,0.0320
2317.50,0.0320
2317.00,0.0320
2316.50,0.0320
2316.00,0.0320
2315.50,0.0320
2315.00,0.0320
2314.50,0.0320
2314.00,0.0321
2313.50,0.0321
2313.00,0.0320
2312.50,0.0320
2312.00,0.0321
2311.50,0.0321
2311.00,0.0321
2310.50,0.0321
2310.00,0.0321
2309.50,0.0322
2309.00,0.0321
2308.50,0.0321
2308.00,0.0322
2307.50,0.0322
2307.00,0.0321
2306.50,0.0321
2306.00,0.0322
2305.50,0.0322
2305.00,0.0321
2304.50,0.0321
2304.00,0.0322
2303.50,0.0322
2303.00,0.0322
2302.50,0.0322
2302.00,0.0322
2301.50,0.0323
2301.00,0.0322
2300.50,0.0322
2300.00,0.0323
2299.50,0.0323
2299.00,0.0323
2298.50,0.0323
2298.00,0.0323
2297.50,0.0323
2297.00,0.0323
2296.50,0.0323
2296.00,0.0323
2295.50,0.0323
2295.00,0.0323
2294.50,0.0323
2294.00,0.0324
2293.50,0.0324
2293.00,0.0324
2292.50,0.0324
2292.00,0.0324
2291.50,0.0324
2291.00,0.0324
2290.50,0.0324
2290.00,0.0325
2289.50,0.0325
2289.00,0.0325
2288.50,0.0325
2288.00,0.0325
2287.50,0.0325
2287.00,0.0325
2286.50,0.0325
2286.00,0.0326
2285.50,0.0326
2285.00,0.0326
2284.50,0.0326
2284.00,0.0326
2283.50,0.0327
2283.00,0.0326
2282.50,0.0327
2282.00,0.0327
2281.50,0.0327
2281.00,0.0327
2280.50,0.0327
2280.00,0.0328
2279.50,0.0328
2279.00,0.0328
2278.50,0.0328
2278.00,0.0328
2277.50,0.0328
2277.00,0.0328
2276.50,0.0328
2276.00,0.0329
2275.50,0.0329
2275.00,0.0329
2274.50,0.0329
2274.00,0.0329
2273.50,0.0329
2273.00,0.0329
2272.50,0.0329
2272.00,0.0329
2271.50,0.0329
2271.00,0.0329
2270.50,0.0329
2270.00,0.0329
2269.50,0.0330
2269.00,0.0329
2268.50,0.0329
2268.00,0.0330
2267.50,0.0330
2267.00,0.0330
2266.50,0.0330
2266.00,0.0330
2265.50,0.0330
2265.00,0.0330
2264.50,0.0330
2264.00,0.0330
2263.50,0.0330
2263.00,0.0330
2262.50,0.0330
2262.00,0.0330
2261.50,0.0330
2261.00,0.0330
2260.50,0.0330
2260.00,0.0330
2259.50,0.0331
2259.00,0.0331
2258.50,0.0331
2258.00,0.0331
2257.50,0.0331
2257.00,0.0331
2256.50,0.0331
2256.00,0.0331
2255.50,0.0331
2255.00,0.0331
2254.50,0.0331
2254.00,0.0331
2253.50,0.0332
2253.00,0.0332
2252.50,0.0332
2252.00,0.0332
2251.50,0.0332
2251.00,0.0332
2250.50,0.0332
2250.00,0.0333
2249.50,0.0333
2249.00,0.0333
2248.50,0.0333
2248.00,0.0333
2247.50,0.0333
2247.00,0.0334
2246.50,0.0334
2246.00,0.0334
2245.50,0.0334
2245.00,0.0334
2244.50,0.0334
2244.00,0.0335
2243.50,0.0335
2243.00,0.0335
2242.50,0.0335
2242.00,0.0335
2241.50,0.0336
2241.00,0.0336
2240.50,0.0336
2240.00,0.0336
2239.50,0.0336
2239.00,0.0336
2238.50,0.0337
2238.00,0.0337
2237.50,0.0337
2237.00,0.0338
2236.50,0.0338
2236.00,0.0338
2235.50,0.0338
2235.00,0.0339
2234.50,0.0339
2234.00,0.0339
2233.50,0.0340
2233.00,0.0340
2232.50,0.0340
2232.00,0.0341
2231.50,0.0341
2231.00,0.0341
2230.50,0.0342
2230.00,0.0342
2229.50,0.0343
2229.00,0.0343
2228.50,0.0343
2228.00,0.0344
2227.50,0.0345
2227.00,0.0345
2226.50,0.0345
2226.00,0.0346
2225.50,0.0346
2225.00,0.0347
2224.50,0.0347
2224.00,0.0348
2223.50,0.0349
2223.00,0.0349
2222.50,0.0350
2222.00,0.0350
2221.50,0.0351
2221.00,0.0351
2220.50,0.0352
2220.00,0.0352
2219.50,0.0353
2219.00,0.0354
2218.50,0.0354
2218.00,0.0355
2217.50,0.0356
2217.00,0.0356
2216.50,0.0357
2216.00,0.0357
2215.50,0.0358
2215.00,0.0359
2214.50,0.0360
2214.00,0.0360
2213.50,0.0361
2213.00,0.0362
2212.50,0.0363
2212.00,0.0364
2211.50,0.0365
2211.00,0.0366
2210.50,0.0367
2210.00,0.0368
2209.50,0.0369
2209.00,0.0370
2208.50,0.0371
2208.00,0.0372
2207.50,0.0373
2207.00,0.0375
2206.50,0.0376
2206.00,0.0377
2205.50,0.0379
2205.00,0.0380
2204.50,0.0381
2204.00,0.0383
2203.50,0.0385
2203.00,0.0386
2202.50,0.0388
2202.00,0.0389
2201.50,0.0391
2201.00,0.0393
2200.50,0.0395
2200.00,0.0397
2199.50,0.0399
2199.00,0.0401
2198.50,0.0403
2198.00,0.0405
2197.50,0.0408
2197.00,0.0410
2196.50,0.0413
2196.00,0.0415
2195.50,0.0418
2195.00,0.0421
2194.50,0.0424
2194.00,0.0427
2193.50,0.0430
2193.00,0.0433
2192.50,0.0436
2192.00,0.0439
2191.50,0.0443
2191.00,0.0446
2190.50,0.0450
2190.00,0.0454
2189.50,0.0458
2189.00,0.0462
2188.50,0.0466
2188.00,0.0470
2187.50,0.0475
2187.00,0.0479
2186.50,0.0484
2186.00,0.0489
2185.50,0.0494
2185.00,0.0499
2184.50,0.0504
2184.00,0.0510
2183.50,0.0515
2183.00,0.0521
2182.50,0.0527
2182.00,0.0533
2181.50,0.0539
2181.00,0.0545
2180.50,0.0551
2180.00,0.0558
2179.50,0.0564
2179.00,0.0571
2178.50,0.0578
2178.00,0.0584
2177.50,0.0591
2177.00,0.0598
2176.50,0.0604
2176.00,0.0611
2175.50,0.0618
2175.00,0.0625
2174.50,0.0631
2174.00,0.0638
2173.50,0.0644
2173.00,0.0650
2172.50,0.0656
2172.00,0.0662
2171.50,0.0668
2171.00,0.0674
2170.50,0.0679
2170.00,0.0685
2169.50,0.0690
2169.00,0.0694
2168.50,0.0699
2168.00,0.0703
2167.50,0.0707
2167.00,0.0710
2166.50,0.0713
2166.00,0.0716
2165.50,0.0719
2165.00,0.0721
2164.50,0.0723
2164.00,0.0724
2163.50,0.0725
2163.00,0.0726
2162.50,0.0726
2162.00,0.0726
2161.50,0.0725
2161.00,0.0724
2160.50,0.0723
2160.00,0.0721
2159.50,0.0719
2159.00,0.0717
2158.50,0.0714
2158.00,0.0711
2157.50,0.0708
2157.00,0.0704
2156.50,0.0700
2156.00,0.0695
2155.50,0.0691
2155.00,0.0686
2154.50,0.0681
2154.00,0.0676
2153.50,0.0670
2153.00,0.0664
2152.50,0.0659
2152.00,0.0652
2151.50,0.0646
2151.00,0.0640
2150.50,0.0634
2150.00,0.0627
2149.50,0.0621
2149.00,0.0614
2148.50,0.0607
2148.00,0.0601
2147.50,0.0594
2147.00,0.0587
2146.50,0.0581
2146.00,0.0574
2145.50,0.0568
2145.00,0.0561
2144.50,0.0555
2144.00,0.0549
2143.50,0.0542
2143.00,0.0536
2142.50,0.0530
2142.00,0.0524
2141.50,0.0519
2141.00,0.0513
2140.50,0.0508
2140.00,0.0502
2139.50,0.0497
2139.00,0.0492
2138.50,0.0487
2138.00,0.0482
2137.50,0.0478
2137.00,0.0473
2136.50,0.0468
2136.00,0.0464
2135.50,0.0460
2135.00,0.0456
2134.50,0.0452
2134.00,0.0448
2133.50,0.0445
2133.00,0.0441
2132.50,0.0438
2132.00,0.0435
2131.50,0.0432
2131.00,0.0429
2130.50,0.0426
2130.00,0.0423
2129.50,0.0421
2129.00,0.0418
2128.50,0.0416
2128.00,0.0414
2127.50,0.0411
2127.00,0.0409
2126.50,0.0407
2126.00,0.0405
2125.50,0.0403
2125.00,0.0402
2124.50,0.0400
2124.00,0.0399
2123.50,0.0397
2123.00,0.0396
2122.50,0.0394
2122.00,0.0393
2121.50,0.0392
2121.00,0.0390
2120.50,0.0389
2120.00,0.0388
2119.50,0.0387
2119.00,0.0386
2118.50,0.0385
2118.00,0.0384
2117.50,0.0383
2117.00,0.0382
2116.50,0.0381
2116.00,0.0380
2115.50,0.0380
2115.00,0.0379
2114.50,0.0378
2114.00,0.0377
2113.50,0.0377
2113.00,0.0376
2112.50,0.0375
2112.00,0.0375
2111.50,0.0375
2111.00,0.0374
2110.50,0.0373
2110.00,0.0373
2109.50,0.0373
2109.00,0.0372
2108.50,0.0372
2108.00,0.0371
2107.50,0.0371
2107.00,0.0370
2106.50,0.0370
2106.00,0.0370
2105.50,0.0369
2105.00,0.0369
2104.50,0.0368
2104.00,0.0368
2103.50,0.0368
2103.00,0.0367
2102.50,0.0367
2102.00,0.0366
2101.50,0.0366
2101.00,0.0366
2100.50,0.0366
2100.00,0.0365
2099.50,0.0365
2099.00,0.0365
2098.50,0.0364
2098.00,0.0364
2097.50,0.0364
2097.00,0.0363
2096.50,0.0363
2096.00,0.0363
2095.50,0.0363
2095.00,0.0362
2094.50,0.0362
2094.00,0.0362
2093.50,0.0362
2093.00,0.0362
2092.50,0.0361
2092.00,0.0361
2091.50,0.0361
2091.00,0.0361
2090.50,0.0361
2090.00,0.0361
2089.50,0.0361
2089.00,0.0361
2088.50,0.0361
2088.00,0.0361
2087.50,0.0361
2087.00,0.0361
2086.50,0.0361
2086.00,0.0361
2085.50,0.0361
2085.00,0.0361
2084.50,0.0361
2084.00,0.0361
2083.50,0.0361
2083.00,0.0361
2082.50,0.0361
2082.00,0.0361
2081.50,0.0361
2081.00,0.0362
2080.50,0.0362
2080.00,0.0362
2079.50,0.0362
2079.00,0.0362
2078.50,0.0362
2078.00,0.0362
2077.50,0.0362
2077.00,0.0362
2076.50,0.0362
2076.00,0.0362
2075.50,0.0363
2075.00,0.0363
2074.50,0.0363
2074.00,0.0363
2073.50,0.0363
2073.00,0.0364
2072.50,0.0364
2072.00,0.0364
2071.50,0.0364
2071.00,0.0364
2070.50,0.0365
2070.00,0.0365
2069.50,0.0365
2069.00,0.0366
2068.50,0.0366
2068.00,0.0366
2067.50,0.0367
2067.00,0.0367
2066.50,0.0367
2066.00,0.0368
2065.50,0.0368
2065.00,0.0368
2064.50,0.0369
2064.00,0.0369
2063.50,0.0369
2063.00,0.0370
2062.50,0.0370
2062.00,0.0371
2061.50,0.0371
2061.00,0.0371
2060.50,0.0372
2060.00,0.0372
2059.50,0.0373
2059.00,0.0373
2058.50,0.0373
2058.00,0.0374
2057.50,0.0374
2057.00,0.0375
2056.50,0.0375
2056.00,0.0375
2055.50,0.0376
2055.00,0.0376
2054.50,0.0376
2054.00,0.0376
2053.50,0.0377
2053.00,0.0377
2052.50,0.0377
2052.00,0.0377
2051.50,0.0377
2051.00,0.0377
2050.50,0.0377
2050.00,0.0376
2049.50,0.0376
2049.00,0.0376
2048.50,0.0375
2048.00,0.0374
2047.50,0.0374
2047.00,0.0373
2046.50,0.0372
2046.00,0.0371
2045.50,0.0370
2045.00,0.0369
2044.50,0.0368
2044.00,0.0367
2043.50,0.0365
2043.00,0.0364
2042.50,0.0363
2042.00,0.0362
2041.50,0.0360
2041.00,0.0359
2040.50,0.0358
2040.00,0.0357
2039.50,0.0356
2039.00,0.0355
2038.50,0.0354
2038.00,0.0353
2037.50,0.0352
2037.00,0.0351
2036.50,0.0350
2036.00,0.0350
2035.50,0.0349
2035.00,0.0349
2034.50,0.0348
2034.00,0.0348
2033.50,0.0347
2033.00,0.0347
2032.50,0.0347
2032.00,0.0347
2031.50,0.0346
2031.00,0.0346
2030.50,0.0346
2030.00,0.0346
2029.50,0.0346
2029.00,0.0346
2028.50,0.0346
2028.00,0.0346
2027.50,0.0346
2027.00,0.0347
2026.50,0.0347
2026.00,0.0347
2025.50,0.0347
2025.00,0.0348
2024.50,0.0348
2024.00,0.0348
2023.50,0.0349
2023.00,0.0349
2022.50,0.0349
2022.00,0.0350
2021.50,0.0350
2021.00,0.0351
2020.50,0.0351
2020.00,0.0352
2019.50,0.0352
2019.00,0.0353
2018.50,0.0353
2018.00,0.0354
2017.50,0.0355
2017.00,0.0355
2016.50,0.0355
2016.00,0.0356
2015.50,0.0357
2015.00,0.0357
2014.50,0.0358
2014.00,0.0359
2013.50,0.0359
2013.00,0.0360
2012.50,0.0361
2012.00,0.0362
2011.50,0.0362
2011.00,0.0363
2010.50,0.0363
2010.00,0.0364
2009.50,0.0365
2009.00,0.0365
2008.50,0.0365
2008.00,0.0366
2007.50,0.0366
2007.00,0.0367
2006.50,0.0367
2006.00,0.0368
2005.50,0.0368
2005.00,0.0369
2004.50,0.0369
2004.00,0.0369
2003.50,0.0370
2003.00,0.0370
2002.50,0.0370
2002.00,0.0371
2001.50,0.0371
2001.00,0.0372
2000.50,0.0372
2000.00,0.0372
1999.50,0.0373
1999.00,0.0373
1998.50,0.0373
1998.00,0.0373
1997.50,0.0374
1997.00,0.0374
1996.50,0.0373
1996.00,0.0373
1995.50,0.0373
1995.00,0.0373
1994.50,0.0373
1994.00,0.0373
1993.50,0.0373
1993.00,0.0373
1992.50,0.0373
1992.00,0.0373
1991.50,0.0373
1991.00,0.0373
1990.50,0.0373
1990.00,0.0373
1989.50,0.0373
1989.00,0.0374
1988.50,0.0374
1988.00,0.0375
1987.50,0.0375
1987.00,0.0376
1986.50,0.0376
1986.00,0.0376
1985.50,0.0377
1985.00,0.0377
1984.50,0.0378
1984.00,0.0378
1983.50,0.0379
1983.00,0.0380
1982.50,0.0381
1982.00,0.0382
1981.50,0.0383
1981.00,0.0383
1980.50,0.0384
1980.00,0.0385
1979.50,0.0386
1979.00,0.0388
1978.50,0.0389
1978.00,0.0390
1977.50,0.0391
1977.00,0.0392
1976.50,0.0394
1976.00,0.0395
1975.50,0.0396
1975.00,0.0398
1974.50,0.0399
1974.00,0.0401
1973.50,0.0403
1973.00,0.0404
1972.50,0.0406
1972.00,0.0407
1971.50,0.0409
1971.00,0.0411
1970.50,0.0412
1970.00,0.0414
1969.50,0.0416
1969.00,0.0417
1968.50,0.0419
1968.00,0.0421
1967.50,0.0423
1967.00,0.0425
1966.50,0.0426
1966.00,0.0427
1965.50,0.0429
1965.00,0.0430
1964.50,0.0431
1964.00,0.0433
1963.50,0.0434
1963.00,0.0435
1962.50,0.0437
1962.00,0.0438
1961.50,0.0439
1961.00,0.0440
1960.50,0.0441
1960.00,0.0443
1959.50,0.0444
1959.00,0.0445
1958.50,0.0446
1958.00,0.0447
1957.50,0.0449
1957.00,0.0450
1956.50,0.0451
1956.00,0.0453
1955.50,0.0454
1955.00,0.0456
1954.50,0.0457
1954.00,0.0458
1953.50,0.0460
1953.00,0.0461
1952.50,0.0463
1952.00,0.0465
1951.50,0.0466
1951.00,0.0468
1950.50,0.0470
1950.00,0.0472
1949.50,0.0473
1949.00,0.0475
1948.50,0.0476
1948.00,0.0478
1947.50,0.0480
1947.00,0.0481
1946.50,0.0482
1946.00,0.0483
1945.50,0.0484
1945.00,0.0485
1944.50,0.0485
1944.00,0.0485
1943.50,0.0486
1943.00,0.0486
1942.50,0.0485
1942.00,0.0483
1941.50,0.0482
1941.00,0.0480
1940.50,0.0478
1940.00,0.0477
1939.50,0.0475
1939.00,0.0473
1938.50,0.0470
1938.00,0.0468
1937.50,0.0465
1937.00,0.0462
1936.50,0.0460
1936.00,0.0457
1935.50,0.0455
1935.00,0.0452
1934.50,0.0450
1934.00,0.0447
1933.50,0.0445
1933.00,0.0443
1932.50,0.0441
1932.00,0.0439
1931.50,0.0437
1931.00,0.0436
1930.50,0.0434
1930.00,0.0433
1929.50,0.0432
1929.00,0.0431
1928.50,0.0429
1928.00,0.0428
1927.50,0.0427
1927.00,0.0426
1926.50,0.0425
1926.00,0.0425
1925.50,0.0424
1925.00,0.0424
1924.50,0.0423
1924.00,0.0423
1923.50,0.0423
1923.00,0.0423
1922.50,0.0422
1922.00,0.0421
1921.50,0.0420
1921.00,0.0419
1920.50,0.0418
1920.00,0.0418
1919.50,0.0417
1919.00,0.0417
1918.50,0.0416
1918.00,0.0415
1917.50,0.0415
1917.00,0.0414
1916.50,0.0413
1916.00,0.0412
1915.50,0.0412
1915.00,0.0411
1914.50,0.0410
1914.00,0.0409
1913.50,0.0408
1913.00,0.0407
1912.50,0.0406
1912.00,0.0405
1911.50,0.0404
1911.00,0.0403
1910.50,0.0402
1910.00,0.0401
1909.50,0.0401
1909.00,0.0400
1908.50,0.0399
1908.00,0.0398
1907.50,0.0397
1907.00,0.0396
1906.50,0.0395
1906.00,0.0394
1905.50,0.0394
1905.00,0.0393
1904.50,0.0392
1904.00,0.0392
1903.50,0.0391
1903.00,0.0390
1902.50,0.0390
1902.00,0.0389
1901.50,0.0389
1901.00,0.0389
1900.50,0.0388
1900.00,0.0388
1899.50,0.0388
1899.00,0.0388
1898.50,0.0387
1898.00,0.0387
1897.50,0.0387
1897.00,0.0387
1896.50,0.0387
1896.00,0.0387
1895.50,0.0387
1895.00,0.0387
1894.50,0.0387
1894.00,0.0387
1893.50,0.0386
1893.00,0.0386
1892.50,0.0386
1892.00,0.0386
1891.50,0.0387
1891.00,0.0387
1890.50,0.0388
1890.00,0.0388
1889.50,0.0388
1889.00,0.0388
1888.50,0.0388
1888.00,0.0387
1887.50,0.0387
1887.00,0.0387
1886.50,0.0388
1886.00,0.0388
1885.50,0.0388
1885.00,0.0388
1884.50,0.0388
1884.00,0.0388
1883.50,0.0388
1883.00,0.0388
1882.50,0.0388
1882.00,0.0388
1881.50,0.0388
1881.00,0.0389
1880.50,0.0389
1880.00,0.0389
1879.50,0.0389
1879.00,0.0389
1878.50,0.0389
1878.00,0.0389
1877.50,0.0389
1877.00,0.0389
1876.50,0.0389
1876.00,0.0389
1875.50,0.0389
1875.00,0.0389
1874.50,0.0389
1874.00,0.0389
1873.50,0.0389
1873.00,0.0389
1872.50,0.0389
1872.00,0.0389
1871.50,0.0389
1871.00,0.0389
1870.50,0.0390
1870.00,0.0390
1869.50,0.0390
1869.00,0.0390
1868.50,0.0391
1868.00,0.0391
1867.50,0.0391
1867.00,0.0391
1866.50,0.0390
1866.00,0.0390
1865.50,0.0390
1865.00,0.0390
1864.50,0.0390
1864.00,0.0390
1863.50,0.0390
1863.00,0.0390
1862.50,0.0390
1862.00,0.0390
1861.50,0.0390
1861.00,0.0390
1860.50,0.0390
1860.00,0.0390
1859.50,0.0390
1859.00,0.0390
1858.50,0.0390
1858.00,0.0390
1857.50,0.0390
1857.00,0.0390
1856.50,0.0391
1856.00,0.0391
1855.50,0.0391
1855.00,0.0391
1854.50,0.0391
1854.00,0.0391
1853.50,0.0391
1853.00,0.0391
1852.50,0.0391
1852.00,0.0391
1851.50,0.0391
1851.00,0.0391
1850.50,0.0391
1850.00,0.0391
1849.50,0.0391
1849.00,0.0391
1848.50,0.0391
1848.00,0.0391
1847.50,0.0390
1847.00,0.0390
1846.50,0.0390
1846.00,0.0390
1845.50,0.0390
1845.00,0.0390
1844.50,0.0389
1844.00,0.0389
1843.50,0.0388
1843.00,0.0388
1842.50,0.0388
1842.00,0.0388
1841.50,0.0388
1841.00,0.0389
1840.50,0.0389
1840.00,0.0389
1839.50,0.0389
1839.00,0.0389
1838.50,0.0389
1838.00,0.0389
1837.50,0.0389
1837.00,0.0389
1836.50,0.0389
1836.00,0.0388
1835.50,0.0388
1835.00,0.0389
1834.50,0.0389
1834.00,0.0389
1833.50,0.0389
1833.00,0.0389
1832.50,0.0390
1832.00,0.0390
1831.50,0.0391
1831.00,0.0392
1830.50,0.0393
1830.00,0.0394
1829.50,0.0394
1829.00,0.0394
1828.50,0.0393
1828.00,0.0393
1827.50,0.0392
1827.00,0.0392
1826.50,0.0393
1826.00,0.0394
1825.50,0.0394
1825.00,0.0395
1824.50,0.0395
1824.00,0.0395
1823.50,0.0395
1823.00,0.0395
1822.50,0.0395
1822.00,0.0396
1821.50,0.0396
1821.00,0.0397
1820.50,0.0397
1820.00,0.0397
1819.50,0.0398
1819.00,0.0398
1818.50,0.0398
1818.00,0.0398
1817.50,0.0398
1817.00,0.0399
1816.50,0.0400
1816.00,0.0400
1815.50,0.0401
1815.00,0.0401
1814.50,0.0402
1814.00,0.0402
1813.50,0.0403
1813.00,0.0404
1812.50,0.0404
1812.00,0.0405
1811.50,0.0405
1811.00,0.0406
1810.50,0.0406
1810.00,0.0407
1809.50,0.0407
1809.00,0.0408
1808.50,0.0409
1808.00,0.0409
1807.50,0.0410
1807.00,0.0411
1806.50,0.0411
1806.00,0.0412
1805.50,0.0412
1805.00,0.0413
1804.50,0.0413
1804.00,0.0414
1803.50,0.0415
1803.00,0.0416
1802.50,0.0416
1802.00,0.0416
1801.50,0.0416
1801.00,0.0417
1800.50,0.0418
1800.00,0.0419
1799.50,0.0420
1799.00,0.0421
1798.50,0.0422
1798.00,0.0422
1797.50,0.0423
1797.00,0.0423
1796.50,0.0424
1796.00,0.0425
1795.50,0.0426
1795.00,0.0426
1794.50,0.0427
1794.00,0.0427
1793.50,0.0428
1793.00,0.0428
1792.50,0.0429
1792.00,0.0429
1791.50,0.0429
1791.00,0.0429
1790.50,0.0430
1790.00,0.0431
1789.50,0.0432
1789.00,0.0432
1788.50,0.0433
1788.00,0.0433
1787.50,0.0433
1787.00,0.0433
1786.50,0.0433
1786.00,0.0433
1785.50,0.0433
1785.00,0.0433
1784.50,0.0434
1784.00,0.0434
1783.50,0.0435
1783.00,0.0436
1782.50,0.0436
1782.00,0.0437
1781.50,0.0437
1781.00,0.0438
1780.50,0.0437
1780.00,0.0437
1779.50,0.0437
1779.00,0.0437
1778.50,0.0437
1778.00,0.0437
1777.50,0.0438
1777.00,0.0438
1776.50,0.0438
1776.00,0.0438
1775.50,0.0438
1775.00,0.0438
1774.50,0.0438
1774.00,0.0439
1773.50,0.0439
1773.00,0.0440
1772.50,0.0440
1772.00,0.0440
1771.50,0.0440
1771.00,0.0440
1770.50,0.0439
1770.00,0.0438
1769.50,0.0438
1769.00,0.0438
1768.50,0.0437
1768.00,0.0437
1767.50,0.0437
1767.00,0.0437
1766.50,0.0436
1766.00,0.0436
1765.50,0.0436
1765.00,0.0437
1764.50,0.0437
1764.00,0.0437
1763.50,0.0437
1763.00,0.0437
1762.50,0.0437
1762.00,0.0437
1761.50,0.0437
1761.00,0.0437
1760.50,0.0436
1760.00,0.0435
1759.50,0.0435
1759.00,0.0435
1758.50,0.0435
1758.00,0.0435
1757.50,0.0435
1757.00,0.0434
1756.50,0.0433
1756.00,0.0433
1755.50,0.0433
1755.00,0.0433
1754.50,0.0433
1754.00,0.0433
1753.50,0.0432
1753.00,0.0431
1752.50,0.0429
1752.00,0.0426
1751.50,0.0424
1751.00,0.0424
1750.50,0.0427
1750.00,0.0429
1749.50,0.0431
1749.00,0.0433
1748.50,0.0433
1748.00,0.0434
1747.50,0.0435
1747.00,0.0434
1746.50,0.0434
1746.00,0.0434
1745.50,0.0435
1745.00,0.0435
1744.50,0.0436
1744.00,0.0436
1743.50,0.0437
1743.00,0.0436
1742.50,0.0436
1742.00,0.0436
1741.50,0.0437
1741.00,0.0437
1740.50,0.0438
1740.00,0.0439
1739.50,0.0439
1739.00,0.0438
1738.50,0.0438
1738.00,0.0437
1737.50,0.0437
1737.00,0.0437
1736.50,0.0438
1736.00,0.0438
1735.50,0.0439
1735.00,0.0438
1734.50,0.0434
1734.00,0.0431
1733.50,0.0431
1733.00,0.0434
1732.50,0.0437
1732.00,0.0439
1731.50,0.0441
1731.00,0.0442
1730.50,0.0442
1730.00,0.0442
1729.50,0.0442
1729.00,0.0442
1728.50,0.0442
1728.00,0.0443
1727.50,0.0443
1727.00,0.0443
1726.50,0.0444
1726.00,0.0444
1725.50,0.0444
1725.00,0.0444
1724.50,0.0444
1724.00,0.0444
1723.50,0.0443
1723.00,0.0443
1722.50,0.0444
1722.00,0.0444
1721.50,0.0445
1721.00,0.0445
1720.50,0.0446
1720.00,0.0446
1719.50,0.0446
1719.00,0.0444
1718.50,0.0443
1718.00,0.0443
1717.50,0.0443
1717.00,0.0443
1716.50,0.0444
1716.00,0.0445
1715.50,0.0446
1715.00,0.0446
1714.50,0.0447
1714.00,0.0447
1713.50,0.0446
1713.00,0.0445
1712.50,0.0445
1712.00,0.0445
1711.50,0.0445
1711.00,0.0445
1710.50,0.0445
1710.00,0.0445
1709.50,0.0445
1709.00,0.0445
1708.50,0.0445
1708.00,0.0445
1707.50,0.0445
1707.00,0.0445
1706.50,0.0445
1706.00,0.0446
1705.50,0.0448
1705.00,0.0449
1704.50,0.0449
1704.00,0.0449
1703.50,0.0448
1703.00,0.0447
1702.50,0.0446
1702.00,0.0446
1701.50,0.0446
1701.00,0.0445
1700.50,0.0439
1700.00,0.0441
1699.50,0.0444
1699.00,0.0445
1698.50,0.0445
1698.00,0.0446
1697.50,0.0447
1697.00,0.0447
1696.50,0.0447
1696.00,0.0446
1695.50,0.0446
1695.00,0.0446
1694.50,0.0446
1694.00,0.0446
1693.50,0.0447
1693.00,0.0448
1692.50,0.0448
1692.00,0.0448
1691.50,0.0448
1691.00,0.0448
1690.50,0.0448
1690.00,0.0448
1689.50,0.0448
1689.00,0.0449
1688.50,0.0449
1688.00,0.0449
1687.50,0.0450
1687.00,0.0450
1686.50,0.0450
1686.00,0.0450
1685.50,0.0449
1685.00,0.0450
1684.50,0.0451
1684.00,0.0451
1683.50,0.0453
1683.00,0.0455
1682.50,0.0456
1682.00,0.0456
1681.50,0.0457
1681.00,0.0458
1680.50,0.0458
1680.00,0.0457
1679.50,0.0457
1679.00,0.0457
1678.50,0.0457
1678.00,0.0457
1677.50,0.0458
1677.00,0.0459
1676.50,0.0460
1676.00,0.0460
1675.50,0.0459
1675.00,0.0460
1674.50,0.0460
1674.00,0.0461
1673.50,0.0461
1673.00,0.0462
1672.50,0.0463
1672.00,0.0464
1671.50,0.0465
1671.00,0.0466
1670.50,0.0466
1670.00,0.0467
1669.50,0.0467
1669.00,0.0468
1668.50,0.0469
1668.00,0.0470
1667.50,0.0470
1667.00,0.0470
1666.50,0.0471
1666.00,0.0472
1665.50,0.0472
1665.00,0.0472
1664.50,0.0473
1664.00,0.0474
1663.50,0.0474
1663.00,0.0475
1662.50,0.0476
1662.00,0.0477
1661.50,0.0477
1661.00,0.0477
1660.50,0.0477
1660.00,0.0478
1659.50,0.0478
1659.00,0.0479
1658.50,0.0479
1658.00,0.0481
1657.50,0.0482
1657.00,0.0483
1656.50,0.0484
1656.00,0.0485
1655.50,0.0486
1655.00,0.0486
1654.50,0.0486
1654.00,0.0487
1653.50,0.0488
1653.00,0.0488
1652.50,0.0491
1652.00,0.0495
1651.50,0.0495
1651.00,0.0495
1650.50,0.0495
1650.00,0.0495
1649.50,0.0495
1649.00,0.0496
1648.50,0.0496
1648.00,0.0495
1647.50,0.0495
1647.00,0.0496
1646.50,0.0496
1646.00,0.0496
1645.50,0.0497
1645.00,0.0498
1644.50,0.0498
1644.00,0.0498
1643.50,0.0499
1643.00,0.0500
1642.50,0.0500
1642.00,0.0499
1641.50,0.0499
1641.00,0.0500
1640.50,0.0500
1640.00,0.0500
1639.50,0.0501
1639.00,0.0502
1638.50,0.0502
1638.00,0.0503
1637.50,0.0503
1637.00,0.0504
1636.50,0.0504
1636.00,0.0504
1635.50,0.0505
1635.00,0.0507
1634.50,0.0508
1634.00,0.0509
1633.50,0.0510
1633.00,0.0511
1632.50,0.0512
1632.00,0.0512
1631.50,0.0512
1631.00,0.0513
1630.50,0.0513
1630.00,0.0513
1629.50,0.0514
1629.00,0.0515
1628.50,0.0516
1628.00,0.0517
1627.50,0.0518
1627.00,0.0519
1626.50,0.0520
1626.00,0.0521
1625.50,0.0521
1625.00,0.0522
1624.50,0.0524
1624.00,0.0525
1623.50,0.0526
1623.00,0.0527
1622.50,0.0527
1622.00,0.0528
1621.50,0.0528
1621.00,0.0529
1620.50,0.0530
1620.00,0.0531
1619.50,0.0531
1619.00,0.0532
1618.50,0.0533
1618.00,0.0533
1617.50,0.0534
1617.00,0.0535
1616.50,0.0537
1616.00,0.0537
1615.50,0.0537
1615.00,0.0537
1614.50,0.0538
1614.00,0.0539
1613.50,0.0539
1613.00,0.0540
1612.50,0.0540
1612.00,0.0540
1611.50,0.0540
1611.00,0.0540
1610.50,0.0540
1610.00,0.0541
1609.50,0.0541
1609.00,0.0542
1608.50,0.0543
1608.00,0.0544
1607.50,0.0544
1607.00,0.0545
1606.50,0.0546
1606.00,0.0546
1605.50,0.0547
1605.00,0.0548
1604.50,0.0549
1604.00,0.0550
1603.50,0.0552
1603.00,0.0553
1602.50,0.0555
1602.00,0.0558
1601.50,0.0561
1601.00,0.0564
1600.50,0.0569
1600.00,0.0574
1599.50,0.0580
1599.00,0.0587
1598.50,0.0594
1598.00,0.0600
1597.50,0.0604
1597.00,0.0606
1596.50,0.0606
1596.00,0.0602
1595.50,0.0596
1595.00,0.0589
1594.50,0.0581
1594.00,0.0574
1593.50,0.0568
1593.00,0.0563
1592.50,0.0559
1592.00,0.0555
1591.50,0.0553
1591.00,0.0551
1590.50,0.0549
1590.00,0.0547
1589.50,0.0545
1589.00,0.0544
1588.50,0.0543
1588.00,0.0542
1587.50,0.0541
1587.00,0.0540
1586.50,0.0540
1586.00,0.0539
1585.50,0.0539
1585.00,0.0538
1584.50,0.0538
1584.00,0.0538
1583.50,0.0538
1583.00,0.0538
1582.50,0.0538
1582.00,0.0539
1581.50,0.0539
1581.00,0.0540
1580.50,0.0541
1580.00,0.0541
1579.50,0.0542
1579.00,0.0542
1578.50,0.0542
1578.00,0.0542
1577.50,0.0542
1577.00,0.0542
1576.50,0.0541
1576.00,0.0539
1575.50,0.0537
1575.00,0.0535
1574.50,0.0533
1574.00,0.0532
1573.50,0.0530
1573.00,0.0529
1572.50,0.0527
1572.00,0.0526
1571.50,0.0524
1571.00,0.0523
1570.50,0.0522
1570.00,0.0520
1569.50,0.0517
1569.00,0.0515
1568.50,0.0512
1568.00,0.0511
1567.50,0.0510
1567.00,0.0509
1566.50,0.0508
1566.00,0.0507
1565.50,0.0506
1565.00,0.0505
1564.50,0.0504
1564.00,0.0503
1563.50,0.0503
1563.00,0.0503
1562.50,0.0503
1562.00,0.0503
1561.50,0.0504
1561.00,0.0503
1560.50,0.0501
1560.00,0.0495
1559.50,0.0490
1559.00,0.0489
1558.50,0.0492
1558.00,0.0497
1557.50,0.0501
1557.00,0.0502
1556.50,0.0501
1556.00,0.0501
1555.50,0.0501
1555.00,0.0501
1554.50,0.0500
1554.00,0.0498
1553.50,0.0496
1553.00,0.0496
1552.50,0.0496
1552.00,0.0496
1551.50,0.0497
1551.00,0.0498
1550.50,0.0498
1550.00,0.0497
1549.50,0.0498
1549.00,0.0499
1548.50,0.0500
1548.00,0.0501
1547.50,0.0503
1547.00,0.0504
1546.50,0.0505
1546.00,0.0506
1545.50,0.0508
1545.00,0.0511
1544.50,0.0514
1544.00,0.0516
1543.50,0.0519
1543.00,0.0523
1542.50,0.0527
1542.00,0.0531
1541.50,0.0533
1541.00,0.0534
1540.50,0.0532
1540.00,0.0529
1539.50,0.0529
1539.00,0.0530
1538.50,0.0528
1538.00,0.0525
1537.50,0.0523
1537.00,0.0520
1536.50,0.0518
1536.00,0.0516
1535.50,0.0514
1535.00,0.0512
1534.50,0.0511
1534.00,0.0509
1533.50,0.0507
1533.00,0.0506
1532.50,0.0505
1532.00,0.0503
1531.50,0.0502
1531.00,0.0502
1530.50,0.0502
1530.00,0.0501
1529.50,0.0500
1529.00,0.0499
1528.50,0.0499
1528.00,0.0498
1527.50,0.0497
1527.00,0.0497
1526.50,0.0498
1526.00,0.0498
1525.50,0.0498
1525.00,0.0498
1524.50,0.0498
1524.00,0.0498
1523.50,0.0497
1523.00,0.0497
1522.50,0.0498
1522.00,0.0499
1521.50,0.0499
1521.00,0.0499
1520.50,0.0499
1520.00,0.0498
1519.50,0.0497
1519.00,0.0496
1518.50,0.0496
1518.00,0.0496
1517.50,0.0496
1517.00,0.0496
1516.50,0.0496
1516.00,0.0495
1515.50,0.0494
1515.00,0.0493
1514.50,0.0493
1514.00,0.0493
1513.50,0.0493
1513.00,0.0493
1512.50,0.0492
1512.00,0.0492
1511.50,0.0492
1511.00,0.0492
1510.50,0.0492
1510.00,0.0492
1509.50,0.0493
1509.00,0.0493
1508.50,0.0492
1508.00,0.0492
1507.50,0.0490
1507.00,0.0490
1506.50,0.0491
1506.00,0.0493
1505.50,0.0494
1505.00,0.0495
1504.50,0.0495
1504.00,0.0495
1503.50,0.0494
1503.00,0.0494
1502.50,0.0493
1502.00,0.0493
1501.50,0.0492
1501.00,0.0492
1500.50,0.0492
1500.00,0.0493
1499.50,0.0494
1499.00,0.0494
1498.50,0.0492
1498.00,0.0493
1497.50,0.0495
1497.00,0.0497
1496.50,0.0497
1496.00,0.0496
1495.50,0.0497
1495.00,0.0498
1494.50,0.0499
1494.00,0.0500
1493.50,0.0501
1493.00,0.0502
1492.50,0.0502
1492.00,0.0502
1491.50,0.0502
1491.00,0.0503
1490.50,0.0505
1490.00,0.0509
1489.50,0.0513
1489.00,0.0515
1488.50,0.0516
1488.00,0.0518
1487.50,0.0520
1487.00,0.0523
1486.50,0.0525
1486.00,0.0526
1485.50,0.0528
1485.00,0.0529
1484.50,0.0530
1484.00,0.0532
1483.50,0.0533
1483.00,0.0533
1482.50,0.0534
1482.00,0.0535
1481.50,0.0536
1481.00,0.0537
1480.50,0.0537
1480.00,0.0538
1479.50,0.0538
1479.00,0.0539
1478.50,0.0539
1478.00,0.0540
1477.50,0.0540
1477.00,0.0539
1476.50,0.0540
1476.00,0.0541
1475.50,0.0542
1475.00,0.0543
1474.50,0.0543
1474.00,0.0543
1473.50,0.0544
1473.00,0.0546
1472.50,0.0549
1472.00,0.0552
1471.50,0.0555
1471.00,0.0558
1470.50,0.0561
1470.00,0.0564
1469.50,0.0567
1469.00,0.0571
1468.50,0.0574
1468.00,0.0578
1467.50,0.0581
1467.00,0.0585
1466.50,0.0589
1466.00,0.0592
1465.50,0.0596
1465.00,0.0601
1464.50,0.0606
1464.00,0.0610
1463.50,0.0614
1463.00,0.0619
1462.50,0.0624
1462.00,0.0630
1461.50,0.0636
1461.00,0.0643
1460.50,0.0649
1460.00,0.0655
1459.50,0.0662
1459.00,0.0669
1458.50,0.0676
1458.00,0.0683
1457.50,0.0690
1457.00,0.0698
1456.50,0.0706
1456.00,0.0714
1455.50,0.0720
1455.00,0.0727
1454.50,0.0734
1454.00,0.0741
1453.50,0.0750
1453.00,0.0758
1452.50,0.0767
1452.00,0.0776
1451.50,0.0786
1451.00,0.0796
1450.50,0.0806
1450.00,0.0815
1449.50,0.0823
1449.00,0.0831
1448.50,0.0839
1448.00,0.0848
1447.50,0.0856
1447.00,0.0862
1446.50,0.0865
1446.00,0.0868
1445.50,0.0869
1445.00,0.0869
1444.50,0.0867
1444.00,0.0863
1443.50,0.0859
1443.00,0.0854
1442.50,0.0847
1442.00,0.0840
1441.50,0.0833
1441.00,0.0826
1440.50,0.0817
1440.00,0.0809
1439.50,0.0802
1439.00,0.0795
1438.50,0.0788
1438.00,0.0782
1437.50,0.0776
1437.00,0.0769
1436.50,0.0762
1436.00,0.0758
1435.50,0.0756
1435.00,0.0754
1434.50,0.0753
1434.00,0.0752
1433.50,0.0751
1433.00,0.0752
1432.50,0.0752
1432.00,0.0754
1431.50,0.0756
1431.00,0.0760
1430.50,0.0764
1430.00,0.0770
1429.50,0.0777
1429.00,0.0785
1428.50,0.0792
1428.00,0.0801
1427.50,0.0812
1427.00,0.0825
1426.50,0.0837
1426.00,0.0851
1425.50,0.0867
1425.00,0.0884
1424.50,0.0903
1424.00,0.0925
1423.50,0.0949
1423.00,0.0975
1422.50,0.1000
1422.00,0.1026
1421.50,0.1053
1421.00,0.1078
1420.50,0.1104
1420.00,0.1136
1419.50,0.1176
1419.00,0.1217
1418.50,0.1249
1418.00,0.1274
1417.50,0.1298
1417.00,0.1325
1416.50,0.1350
1416.00,0.1373
1415.50,0.1393
1415.00,0.1411
1414.50,0.1427
1414.00,0.1439
1413.50,0.1449
1413.00,0.1456
1412.50,0.1462
1412.00,0.1464
1411.50,0.1465
1411.00,0.1464
1410.50,0.1461
1410.00,0.1456
1409.50,0.1450
1409.00,0.1442
1408.50,0.1433
1408.00,0.1421
1407.50,0.1409
1407.00,0.1395
1406.50,0.1381
1406.00,0.1367
1405.50,0.1353
1405.00,0.1338
1404.50,0.1324
1404.00,0.1312
1403.50,0.1301
1403.00,0.1291
1402.50,0.1281
1402.00,0.1271
1401.50,0.1260
1401.00,0.1249
1400.50,0.1237
1400.00,0.1223
1399.50,0.1207
1399.00,0.1188
1398.50,0.1168
1398.00,0.1149
1397.50,0.1129
1397.00,0.1108
1396.50,0.1088
1396.00,0.1067
1395.50,0.1044
1395.00,0.1018
1394.50,0.0988
1394.00,0.0958
1393.50,0.0930
1393.00,0.0905
1392.50,0.0883
1392.00,0.0862
1391.50,0.0842
1391.00,0.0823
1390.50,0.0807
1390.00,0.0792
1389.50,0.0779
1389.00,0.0767
1388.50,0.0756
1388.00,0.0746
1387.50,0.0736
1387.00,0.0725
1386.50,0.0717
1386.00,0.0710
1385.50,0.0703
1385.00,0.0697
1384.50,0.0692
1384.00,0.0686
1383.50,0.0679
1383.00,0.0673
1382.50,0.0667
1382.00,0.0662
1381.50,0.0657
1381.00,0.0652
1380.50,0.0648
1380.00,0.0645
1379.50,0.0641
1379.00,0.0638
1378.50,0.0635
1378.00,0.0633
1377.50,0.0631
1377.00,0.0629
1376.50,0.0628
1376.00,0.0627
1375.50,0.0626
1375.00,0.0626
1374.50,0.0626
1374.00,0.0626
1373.50,0.0625
1373.00,0.0624
1372.50,0.0624
1372.00,0.0623
1371.50,0.0621
1371.00,0.0620
1370.50,0.0618
1370.00,0.0616
1369.50,0.0613
1369.00,0.0611
1368.50,0.0609
1368.00,0.0607
1367.50,0.0605
1367.00,0.0603
1366.50,0.0602
1366.00,0.0601
1365.50,0.0600
1365.00,0.0599
1364.50,0.0598
1364.00,0.0597
1363.50,0.0596
1363.00,0.0595
1362.50,0.0595
1362.00,0.0594
1361.50,0.0593
1361.00,0.0592
1360.50,0.0592
1360.00,0.0591
1359.50,0.0590
1359.00,0.0588
1358.50,0.0588
1358.00,0.0587
1357.50,0.0587
1357.00,0.0586
1356.50,0.0586
1356.00,0.0586
1355.50,0.0585
1355.00,0.0585
1354.50,0.0585
1354.00,0.0585
1353.50,0.0584
1353.00,0.0584
1352.50,0.0584
1352.00,0.0585
1351.50,0.0584
1351.00,0.0584
1350.50,0.0584
1350.00,0.0585
1349.50,0.0585
1349.00,0.0585
1348.50,0.0585
1348.00,0.0586
1347.50,0.0586
1347.00,0.0586
1346.50,0.0586
1346.00,0.0587
1345.50,0.0587
1345.00,0.0587
1344.50,0.0587
1344.00,0.0588
1343.50,0.0587
1343.00,0.0587
1342.50,0.0587
1342.00,0.0588
1341.50,0.0588
1341.00,0.0587
1340.50,0.0587
1340.00,0.0588
1339.50,0.0588
1339.00,0.0588
1338.50,0.0589
1338.00,0.0589
1337.50,0.0590
1337.00,0.0590
1336.50,0.0591
1336.00,0.0591
1335.50,0.0592
1335.00,0.0592
1334.50,0.0593
1334.00,0.0594
1333.50,0.0595
1333.00,0.0596
1332.50,0.0597
1332.00,0.0599
1331.50,0.0600
1331.00,0.0602
1330.50,0.0603
1330.00,0.0605
1329.50,0.0607
1329.00,0.0609
1328.50,0.0611
1328.00,0.0613
1327.50,0.0616
1327.00,0.0618
1326.50,0.0620
1326.00,0.0623
1325.50,0.0625
1325.00,0.0628
1324.50,0.0631
1324.00,0.0634
1323.50,0.0637
1323.00,0.0639
1322.50,0.0643
1322.00,0.0646
1321.50,0.0649
1321.00,0.0652
1320.50,0.0656
1320.00,0.0659
1319.50,0.0663
1319.00,0.0666
1318.50,0.0670
1318.00,0.0674
1317.50,0.0678
1317.00,0.0682
1316.50,0.0686
1316.00,0.0691
1315.50,0.0695
1315.00,0.0699
1314.50,0.0704
1314.00,0.0708
1313.50,0.0713
1313.00,0.0717
1312.50,0.0722
1312.00,0.0727
1311.50,0.0732
1311.00,0.0737
1310.50,0.0742
1310.00,0.0747
1309.50,0.0753
1309.00,0.0758
1308.50,0.0763
1308.00,0.0769
1307.50,0.0774
1307.00,0.0780
1306.50,0.0785
1306.00,0.0791
1305.50,0.0797
1305.00,0.0803
1304.50,0.0809
1304.00,0.0816
1303.50,0.0822
1303.00,0.0828
1302.50,0.0835
1302.00,0.0842
1301.50,0.0849
1301.00,0.0856
1300.50,0.0864
1300.00,0.0871
1299.50,0.0879
1299.00,0.0888
1298.50,0.0896
1298.00,0.0905
1297.50,0.0915
1297.00,0.0924
1296.50,0.0934
1296.00,0.0944
1295.50,0.0955
1295.00,0.0966
1294.50,0.0977
1294.00,0.0989
1293.50,0.1001
1293.00,0.1014
1292.50,0.1027
1292.00,0.1041
1291.50,0.1055
1291.00,0.1069
1290.50,0.1084
1290.00,0.1099
1289.50,0.1115
1289.00,0.1132
1288.50,0.1149
1288.00,0.1168
1287.50,0.1187
1287.00,0.1206
1286.50,0.1227
1286.00,0.1249
1285.50,0.1271
1285.00,0.1296
1284.50,0.1321
1284.00,0.1348
1283.50,0.1377
1283.00,0.1407
1282.50,0.1440
1282.00,0.1474
1281.50,0.1512
1281.00,0.1551
1280.50,0.1595
1280.00,0.1641
1279.50,0.1691
1279.00,0.1745
1278.50,0.1804
1278.00,0.1867
1277.50,0.1937
1277.00,0.2012
1276.50,0.2095
1276.00,0.2184
1275.50,0.2283
1275.00,0.2391
1274.50,0.2509
1274.00,0.2639
1273.50,0.2781
1273.00,0.2938
1272.50,0.3111
1272.00,0.3304
1271.50,0.3517
1271.00,0.3752
1270.50,0.4009
1270.00,0.4289
1269.50,0.4591
1269.00,0.4914
1268.50,0.5251
1268.00,0.5594
1267.50,0.5936
1267.00,0.6271
1266.50,0.6589
1266.00,0.6884
1265.50,0.7154
1265.00,0.7397
1264.50,0.7611
1264.00,0.7794
1263.50,0.7949
1263.00,0.8078
1262.50,0.8176
1262.00,0.8241
1261.50,0.8277
1261.00,0.8288
1260.50,0.8272
1260.00,0.8228
1259.50,0.8161
1259.00,0.8074
1258.50,0.7966
1258.00,0.7838
1257.50,0.7696
1257.00,0.7545
1256.50,0.7383
1256.00,0.7214
1255.50,0.7044
1255.00,0.6872
1254.50,0.6696
1254.00,0.6513
1253.50,0.6320
1253.00,0.6116
1252.50,0.5893
1252.00,0.5651
1251.50,0.5391
1251.00,0.5120
1250.50,0.4840
1250.00,0.4558
1249.50,0.4283
1249.00,0.4021
1248.50,0.3773
1248.00,0.3542
1247.50,0.3331
1247.00,0.3138
1246.50,0.2965
1246.00,0.2808
1245.50,0.2669
1245.00,0.2544
1244.50,0.2432
1244.00,0.2331
1243.50,0.2241
1243.00,0.2159
1242.50,0.2086
1242.00,0.2021
1241.50,0.1961
1241.00,0.1908
1240.50,0.1860
1240.00,0.1817
1239.50,0.1777
1239.00,0.1743
1238.50,0.1711
1238.00,0.1683
1237.50,0.1658
1237.00,0.1635
1236.50,0.1615
1236.00,0.1597
1235.50,0.1581
1235.00,0.1568
1234.50,0.1556
1234.00,0.1546
1233.50,0.1538
1233.00,0.1531
1232.50,0.1526
1232.00,0.1523
1231.50,0.1521
1231.00,0.1520
1230.50,0.1521
1230.00,0.1523
1229.50,0.1526
1229.00,0.1530
1228.50,0.1535
1228.00,0.1542
1227.50,0.1549
1227.00,0.1557
1226.50,0.1567
1226.00,0.1577
1225.50,0.1589
1225.00,0.1601
1224.50,0.1614
1224.00,0.1628
1223.50,0.1643
1223.00,0.1658
1222.50,0.1675
1222.00,0.1692
1221.50,0.1710
1221.00,0.1729
1220.50,0.1748
1220.00,0.1768
1219.50,0.1789
1219.00,0.1810
1218.50,0.1832
1218.00,0.1854
1217.50,0.1876
1217.00,0.1899
1216.50,0.1922
1216.00,0.1946
1215.50,0.1970
1215.00,0.1994
1214.50,0.2019
1214.00,0.2043
1213.50,0.2068
1213.00,0.2093
1212.50,0.2118
1212.00,0.2143
1211.50,0.2168
1211.00,0.2193
1210.50,0.2218
1210.00,0.2243
1209.50,0.2267
1209.00,0.2292
1208.50,0.2317
1208.00,0.2341
1207.50,0.2364
1207.00,0.2388
1206.50,0.2411
1206.00,0.2434
1205.50,0.2457
1205.00,0.2479
1204.50,0.2501
1204.00,0.2522
1203.50,0.2543
1203.00,0.2564
1202.50,0.2585
1202.00,0.2605
1201.50,0.2624
1201.00,0.2643
1200.50,0.2662
1200.00,0.2680
1199.50,0.2697
1199.00,0.2714
1198.50,0.2730
1198.00,0.2746
1197.50,0.2762
1197.00,0.2777
1196.50,0.2791
1196.00,0.2805
1195.50,0.2818
1195.00,0.2831
1194.50,0.2844
1194.00,0.2856
1193.50,0.2867
1193.00,0.2879
1192.50,0.2890
1192.00,0.2900
1191.50,0.2910
1191.00,0.2920
1190.50,0.2929
1190.00,0.2938
1189.50,0.2947
1189.00,0.2957
1188.50,0.2966
1188.00,0.2976
1187.50,0.2986
1187.00,0.2996
1186.50,0.3003
1186.00,0.3007
1185.50,0.3011
1185.00,0.3014
1184.50,0.3018
1184.00,0.3022
1183.50,0.3027
1183.00,0.3032
1182.50,0.3037
1182.00,0.3043
1181.50,0.3048
1181.00,0.3054
1180.50,0.3060
1180.00,0.3066
1179.50,0.3073
1179.00,0.3080
1178.50,0.3087
1178.00,0.3093
1177.50,0.3100
1177.00,0.3108
1176.50,0.3115
1176.00,0.3123
1175.50,0.3131
1175.00,0.3140
1174.50,0.3148
1174.00,0.3156
1173.50,0.3164
1173.00,0.3172
1172.50,0.3181
1172.00,0.3189
1171.50,0.3197
1171.00,0.3205
1170.50,0.3213
1170.00,0.3220
1169.50,0.3228
1169.00,0.3237
1168.50,0.3245
1168.00,0.3253
1167.50,0.3262
1167.00,0.3272
1166.50,0.3282
1166.00,0.3292
1165.50,0.3302
1165.00,0.3312
1164.50,0.3323
1164.00,0.3333
1163.50,0.3344
1163.00,0.3356
1162.50,0.3368
1162.00,0.3381
1161.50,0.3393
1161.00,0.3407
1160.50,0.3421
1160.00,0.3435
1159.50,0.3450
1159.00,0.3465
1158.50,0.3481
1158.00,0.3496
1157.50,0.3511
1157.00,0.3526
1156.50,0.3543
1156.00,0.3559
1155.50,0.3576
1155.00,0.3594
1154.50,0.3612
1154.00,0.3630
1153.50,0.3650
1153.00,0.3671
1152.50,0.3692
1152.00,0.3714
1151.50,0.3736
1151.00,0.3759
1150.50,0.3783
1150.00,0.3807
1149.50,0.3833
1149.00,0.3859
1148.50,0.3887
1148.00,0.3914
1147.50,0.3943
1147.00,0.3973
1146.50,0.4004
1146.00,0.4035
1145.50,0.4067
1145.00,0.4101
1144.50,0.4135
1144.00,0.4170
1143.50,0.4205
1143.00,0.4242
1142.50,0.4280
1142.00,0.4318
1141.50,0.4357
1141.00,0.4397
1140.50,0.4437
1140.00,0.4478
1139.50,0.4521
1139.00,0.4565
1138.50,0.4609
1138.00,0.4654
1137.50,0.4699
1137.00,0.4745
1136.50,0.4792
1136.00,0.4839
1135.50,0.4888
1135.00,0.4938
1134.50,0.4989
1134.00,0.5039
1133.50,0.5091
1133.00,0.5145
1132.50,0.5199
1132.00,0.5254
1131.50,0.5309
1131.00,0.5367
1130.50,0.5425
1130.00,0.5483
1129.50,0.5543
1129.00,0.5604
1128.50,0.5666
1128.00,0.5727
1127.50,0.5789
1127.00,0.5853
1126.50,0.5918
1126.00,0.5982
1125.50,0.6046
1125.00,0.6113
1124.50,0.6179
1124.00,0.6244
1123.50,0.6311
1123.00,0.6379
1122.50,0.6446
1122.00,0.6513
1121.50,0.6579
1121.00,0.6647
1120.50,0.6714
1120.00,0.6780
1119.50,0.6846
1119.00,0.6914
1118.50,0.6981
1118.00,0.7045
1117.50,0.7110
1117.00,0.7176
1116.50,0.7240
1116.00,0.7303
1115.50,0.7365
1115.00,0.7428
1114.50,0.7489
1114.00,0.7548
1113.50,0.7607
1113.00,0.7668
1112.50,0.7727
1112.00,0.7784
1111.50,0.7839
1111.00,0.7895
1110.50,0.7949
1110.00,0.8001
1109.50,0.8054
1109.00,0.8108
1108.50,0.8160
1108.00,0.8209
1107.50,0.8257
1107.00,0.8306
1106.50,0.8354
1106.00,0.8399
1105.50,0.8445
1105.00,0.8491
1104.50,0.8535
1104.00,0.8576
1103.50,0.8617
1103.00,0.8660
1102.50,0.8701
1102.00,0.8739
1101.50,0.8776
1101.00,0.8815
1100.50,0.8851
1100.00,0.8885
1099.50,0.8919
1099.00,0.8954
1098.50,0.8987
1098.00,0.9015
1097.50,0.9043
1097.00,0.9072
1096.50,0.9100
1096.00,0.9124
1095.50,0.9149
1095.00,0.9176
1094.50,0.9199
1094.00,0.9219
1093.50,0.9238
1093.00,0.9260
1092.50,0.9279
1092.00,0.9295
1091.50,0.9309
1091.00,0.9325
1090.50,0.9338
1090.00,0.9347
1089.50,0.9355
1089.00,0.9365
1088.50,0.9373
1088.00,0.9377
1087.50,0.9380
1087.00,0.9384
1086.50,0.9387
1086.00,0.9387
1085.50,0.9388
1085.00,0.9390
1084.50,0.9389
1084.00,0.9383
1083.50,0.9377
1083.00,0.9373
1082.50,0.9368
1082.00,0.9359
1081.50,0.9349
1081.00,0.9341
1080.50,0.9330
1080.00,0.9317
1079.50,0.9303
1079.00,0.9292
1078.50,0.9279
1078.00,0.9262
1077.50,0.9246
1077.00,0.9233
1076.50,0.9218
1076.00,0.9200
1075.50,0.9181
1075.00,0.9165
1074.50,0.9147
1074.00,0.9126
1073.50,0.9107
1073.00,0.9090
1072.50,0.9072
1072.00,0.9051
1071.50,0.9030
1071.00,0.9011
1070.50,0.8992
1070.00,0.8971
1069.50,0.8950
1069.00,0.8932
1068.50,0.8913
1068.00,0.8891
1067.50,0.8871
1067.00,0.8853
1066.50,0.8835
1066.00,0.8815
1065.50,0.8795
1065.00,0.8777
1064.50,0.8759
1064.00,0.8739
1063.50,0.8719
1063.00,0.8702
1062.50,0.8684
1062.00,0.8664
1061.50,0.8644
1061.00,0.8627
1060.50,0.8610
1060.00,0.8591
1059.50,0.8572
1059.00,0.8555
1058.50,0.8537
1058.00,0.8517
1057.50,0.8497
1057.00,0.8479
1056.50,0.8460
1056.00,0.8440
1055.50,0.8420
1055.00,0.8403
1054.50,0.8384
1054.00,0.8364
1053.50,0.8344
1053.00,0.8328
1052.50,0.8312
1052.00,0.8296
1051.50,0.8281
1051.00,0.8268
1050.50,0.8254
1050.00,0.8238
1049.50,0.8223
1049.00,0.8212
1048.50,0.8200
1048.00,0.8186
1047.50,0.8172
1047.00,0.8160
1046.50,0.8148
1046.00,0.8134
1045.50,0.8121
1045.00,0.8110
1044.50,0.8100
1044.00,0.8088
1043.50,0.8079
1043.00,0.8071
1042.50,0.8065
1042.00,0.8057
1041.50,0.8051
1041.00,0.8048
1040.50,0.8044
1040.00,0.8039
1039.50,0.8036
1039.00,0.8034
1038.50,0.8033
1038.00,0.8031
1037.50,0.8030
1037.00,0.8032
1036.50,0.8034
1036.00,0.8035
1035.50,0.8038
1035.00,0.8043
1034.50,0.8048
1034.00,0.8051
1033.50,0.8055
1033.00,0.8062
1032.50,0.8068
1032.00,0.8073
1031.50,0.8078
1031.00,0.8086
1030.50,0.8094
1030.00,0.8101
1029.50,0.8109
1029.00,0.8119
1028.50,0.8128
1028.00,0.8135
1027.50,0.8141
1027.00,0.8149
1026.50,0.8158
1026.00,0.8164
1025.50,0.8171
1025.00,0.8178
1024.50,0.8184
1024.00,0.8187
1023.50,0.8191
1023.00,0.8195
1022.50,0.8198
1022.00,0.8197
1021.50,0.8194
1021.00,0.8191
1020.50,0.8185
1020.00,0.8175
1019.50,0.8163
1019.00,0.8148
1018.50,0.8129
1018.00,0.8104
1017.50,0.8076
1017.00,0.8045
1016.50,0.8008
1016.00,0.7966
1015.50,0.7917
1015.00,0.7863
1014.50,0.7802
1014.00,0.7733
1013.50,0.7659
1013.00,0.7580
1012.50,0.7494
1012.00,0.7401
1011.50,0.7300
1011.00,0.7195
1010.50,0.7084
1010.00,0.6968
1009.50,0.6847
1009.00,0.6723
1008.50,0.6595
1008.00,0.6463
1007.50,0.6330
1007.00,0.6196
1006.50,0.6061
1006.00,0.5924
1005.50,0.5787
1005.00,0.5650
1004.50,0.5513
1004.00,0.5377
1003.50,0.5242
1003.00,0.5110
1002.50,0.4979
1002.00,0.4850
1001.50,0.4724
1001.00,0.4600
1000.50,0.4480
1000.00,0.4364
999.50,0.4251
999.00,0.4142
998.50,0.4036
998.00,0.3933
997.50,0.3834
997.00,0.3739
996.50,0.3647
996.00,0.3558
995.50,0.3473
995.00,0.3391
994.50,0.3311
994.00,0.3234
993.50,0.3160
993.00,0.3088
992.50,0.3020
992.00,0.2953
991.50,0.2889
991.00,0.2827
990.50,0.2767
990.00,0.2710
989.50,0.2654
989.00,0.2600
988.50,0.2548
988.00,0.2498
987.50,0.2450
987.00,0.2403
986.50,0.2358
986.00,0.2314
985.50,0.2272
985.00,0.2231
984.50,0.2192
984.00,0.2154
983.50,0.2117
983.00,0.2081
982.50,0.2047
982.00,0.2014
981.50,0.1981
981.00,0.1950
980.50,0.1920
980.00,0.1891
979.50,0.1863
979.00,0.1836
978.50,0.1809
978.00,0.1784
977.50,0.1759
977.00,0.1736
976.50,0.1713
976.00,0.1691
975.50,0.1670
975.00,0.1650
974.50,0.1630
974.00,0.1611
973.50,0.1592
973.00,0.1575
972.50,0.1558
972.00,0.1542
971.50,0.1526
971.00,0.1511
970.50,0.1497
970.00,0.1483
969.50,0.1470
969.00,0.1457
968.50,0.1445
968.00,0.1434
967.50,0.1424
967.00,0.1414
966.50,0.1405
966.00,0.1397
965.50,0.1389
965.00,0.1382
964.50,0.1375
964.00,0.1369
963.50,0.1364
963.00,0.1359
962.50,0.1355
962.00,0.1351
961.50,0.1346
961.00,0.1342
960.50,0.1338
960.00,0.1334
959.50,0.1330
959.00,0.1325
958.50,0.1320
958.00,0.1315
957.50,0.1309
957.00,0.1303
956.50,0.1297
956.00,0.1291
955.50,0.1283
955.00,0.1273
954.50,0.1263
954.00,0.1251
953.50,0.1239
953.00,0.1226
952.50,0.1212
952.00,0.1199
951.50,0.1186
951.00,0.1173
950.50,0.1161
950.00,0.1150
949.50,0.1139
949.00,0.1129
948.50,0.1121
948.00,0.1112
947.50,0.1105
947.00,0.1098
946.50,0.1092
946.00,0.1087
945.50,0.1082
945.00,0.1077
944.50,0.1073
944.00,0.1069
943.50,0.1066
943.00,0.1063
942.50,0.1060
942.00,0.1058
941.50,0.1057
941.00,0.1056
940.50,0.1055
940.00,0.1054
939.50,0.1054
939.00,0.1055
938.50,0.1055
938.00,0.1056
937.50,0.1058
937.00,0.1060
936.50,0.1063
936.00,0.1066
935.50,0.1069
935.00,0.1074
934.50,0.1078
934.00,0.1083
933.50,0.1090
933.00,0.1096
932.50,0.1104
932.00,0.1112
931.50,0.1120
931.00,0.1129
930.50,0.1138
930.00,0.1148
929.50,0.1157
929.00,0.1167
928.50,0.1177
928.00,0.1187
927.50,0.1197
927.00,0.1207
926.50,0.1216
926.00,0.1226
925.50,0.1235
925.00,0.1245
924.50,0.1255
924.00,0.1267
923.50,0.1280
923.00,0.1294
922.50,0.1309
922.00,0.1326
921.50,0.1345
921.00,0.1366
920.50,0.1389
920.00,0.1413
919.50,0.1438
919.00,0.1464
918.50,0.1489
918.00,0.1515
917.50,0.1539
917.00,0.1562
916.50,0.1584
916.00,0.1604
915.50,0.1623
915.00,0.1640
914.50,0.1654
914.00,0.1667
913.50,0.1677
913.00,0.1685
912.50,0.1691
912.00,0.1694
911.50,0.1695
911.00,0.1693
910.50,0.1689
910.00,0.1683
909.50,0.1676
909.00,0.1668
908.50,0.1658
908.00,0.1649
907.50,0.1640
907.00,0.1631
906.50,0.1624
906.00,0.1618
905.50,0.1613
905.00,0.1610
904.50,0.1609
904.00,0.1611
903.50,0.1615
903.00,0.1622
902.50,0.1630
902.00,0.1640
901.50,0.1653
901.00,0.1668
900.50,0.1685
900.00,0.1704
899.50,0.1724
899.00,0.1746
898.50,0.1769
898.00,0.1793
897.50,0.1818
897.00,0.1844
896.50,0.1870
896.00,0.1896
895.50,0.1923
895.00,0.1950
894.50,0.1978
894.00,0.2006
893.50,0.2034
893.00,0.2062
892.50,0.2091
892.00,0.2120
891.50,0.2149
891.00,0.2180
890.50,0.2212
890.00,0.2244
889.50,0.2279
889.00,0.2315
888.50,0.2354
888.00,0.2394
887.50,0.2438
887.00,0.2483
886.50,0.2532
886.00,0.2583
885.50,0.2637
885.00,0.2693
884.50,0.2752
884.00,0.2813
883.50,0.2876
883.00,0.2941
882.50,0.3007
882.00,0.3074
881.50,0.3142
881.00,0.3212
880.50,0.3283
880.00,0.3356
879.50,0.3431
879.00,0.3508
878.50,0.3586
878.00,0.3666
877.50,0.3748
877.00,0.3833
876.50,0.3920
876.00,0.4009
875.50,0.4099
875.00,0.4191
874.50,0.4284
874.00,0.4378
873.50,0.4471
873.00,0.4564
872.50,0.4655
872.00,0.4743
871.50,0.4827
871.00,0.4907
870.50,0.4982
870.00,0.5050
869.50,0.5109
869.00,0.5162
868.50,0.5206
868.00,0.5240
867.50,0.5266
867.00,0.5284
866.50,0.5294
866.00,0.5295
865.50,0.5289
865.00,0.5278
864.50,0.5261
864.00,0.5239
863.50,0.5213
863.00,0.5185
862.50,0.5153
862.00,0.5120
861.50,0.5086
861.00,0.5053
860.50,0.5022
860.00,0.4992
859.50,0.4965
859.00,0.4942
858.50,0.4923
858.00,0.4909
857.50,0.4901
857.00,0.4899
856.50,0.4905
856.00,0.4916
855.50,0.4935
855.00,0.4961
854.50,0.4993
854.00,0.5032
853.50,0.5076
853.00,0.5126
852.50,0.5181
852.00,0.5238
851.50,0.5298
851.00,0.5360
850.50,0.5422
850.00,0.5483
849.50,0.5542
849.00,0.5598
848.50,0.5650
848.00,0.5697
847.50,0.5738
847.00,0.5773
846.50,0.5802
846.00,0.5822
845.50,0.5833
845.00,0.5836
844.50,0.5832
844.00,0.5818
843.50,0.5796
843.00,0.5768
842.50,0.5731
842.00,0.5688
841.50,0.5640
841.00,0.5589
840.50,0.5535
840.00,0.5479
839.50,0.5421
839.00,0.5363
838.50,0.5308
838.00,0.5254
837.50,0.5204
837.00,0.5158
836.50,0.5118
836.00,0.5081
835.50,0.5051
835.00,0.5028
834.50,0.5012
834.00,0.5003
833.50,0.5001
833.00,0.5007
832.50,0.5020
832.00,0.5041
831.50,0.5070
831.00,0.5108
830.50,0.5154
830.00,0.5208
829.50,0.5270
829.00,0.5342
828.50,0.5422
828.00,0.5509
827.50,0.5605
827.00,0.5708
826.50,0.5818
826.00,0.5931
825.50,0.6046
825.00,0.6164
824.50,0.6281
824.00,0.6395
823.50,0.6502
823.00,0.6605
822.50,0.6701
822.00,0.6786
821.50,0.6863
821.00,0.6932
820.50,0.6993
820.00,0.7045
819.50,0.7089
819.00,0.7129
818.50,0.7163
818.00,0.7194
817.50,0.7223
817.00,0.7253
816.50,0.7284
816.00,0.7314
815.50,0.7344
815.00,0.7378
814.50,0.7416
814.00,0.7457
813.50,0.7500
813.00,0.7549
812.50,0.7600
812.00,0.7651
811.50,0.7705
811.00,0.7762
810.50,0.7823
810.00,0.7884
809.50,0.7945
809.00,0.8008
808.50,0.8071
808.00,0.8133
807.50,0.8194
807.00,0.8255
806.50,0.8314
806.00,0.8369
805.50,0.8422
805.00,0.8475
804.50,0.8524
804.00,0.8567
803.50,0.8606
803.00,0.8642
802.50,0.8674
802.00,0.8698
801.50,0.8716
801.00,0.8729
800.50,0.8736
800.00,0.8735
799.50,0.8726
799.00,0.8713
798.50,0.8694
798.00,0.8666
797.50,0.8630
797.00,0.8587
796.50,0.8537
796.00,0.8478
795.50,0.8411
795.00,0.8339
794.50,0.8262
794.00,0.8177
793.50,0.8084
793.00,0.7985
792.50,0.7879
792.00,0.7764
791.50,0.7641
791.00,0.7511
790.50,0.7375
790.00,0.7230
789.50,0.7077
789.00,0.6918
788.50,0.6755
788.00,0.6585
787.50,0.6412
787.00,0.6235
786.50,0.6055
786.00,0.5871
785.50,0.5687
785.00,0.5504
784.50,0.5324
784.00,0.5148
783.50,0.4974
783.00,0.4806
782.50,0.4644
782.00,0.4487
781.50,0.4338
781.00,0.4195
780.50,0.4058
780.00,0.3928
779.50,0.3803
779.00,0.3687
778.50,0.3577
778.00,0.3474
777.50,0.3379
777.00,0.3291
776.50,0.3211
776.00,0.3137
775.50,0.3071
775.00,0.3011
774.50,0.2958
774.00,0.2910
773.50,0.2867
773.00,0.2829
772.50,0.2796
772.00,0.2767
771.50,0.2742
771.00,0.2720
770.50,0.2702
770.00,0.2687
769.50,0.2675
769.00,0.2665
768.50,0.2659
768.00,0.2655
767.50,0.2654
767.00,0.2656
766.50,0.2661
766.00,0.2670
765.50,0.2682
765.00,0.2698
764.50,0.2719
764.00,0.2745
763.50,0.2775
763.00,0.2810
762.50,0.2850
762.00,0.2894
761.50,0.2942
761.00,0.2993
760.50,0.3046
760.00,0.3097
759.50,0.3144
759.00,0.3186
758.50,0.3220
758.00,0.3242
757.50,0.3250
757.00,0.3241
756.50,0.3215
756.00,0.3171
755.50,0.3111
755.00,0.3038
754.50,0.2954
754.00,0.2862
753.50,0.2764
753.00,0.2664
752.50,0.2565
752.00,0.2469
751.50,0.2377
751.00,0.2291
750.50,0.2210
750.00,0.2135
749.50,0.2066
749.00,0.2005
748.50,0.1949
748.00,0.1899
747.50,0.1853
747.00,0.1812
746.50,0.1775
746.00,0.1742
745.50,0.1711
745.00,0.1684
744.50,0.1660
744.00,0.1638
743.50,0.1618
743.00,0.1599
742.50,0.1582
742.00,0.1566
741.50,0.1551
741.00,0.1537
740.50,0.1523
740.00,0.1510
739.50,0.1497
739.00,0.1485
738.50,0.1473
738.00,0.1462
737.50,0.1452
737.00,0.1441
736.50,0.1431
736.00,0.1421
735.50,0.1413
735.00,0.1405
734.50,0.1398
734.00,0.1391
733.50,0.1385
733.00,0.1380
732.50,0.1375
732.00,0.1370
731.50,0.1366
731.00,0.1362
730.50,0.1359
730.00,0.1356
729.50,0.1353
729.00,0.1351
728.50,0.1350
728.00,0.1348
727.50,0.1347
727.00,0.1346
726.50,0.1345
726.00,0.1344
725.50,0.1344
725.00,0.1344
724.50,0.1345
724.00,0.1346
723.50,0.1347
723.00,0.1349
722.50,0.1351
722.00,0.1354
721.50,0.1357
721.00,0.1361
720.50,0.1365
720.00,0.1370
719.50,0.1376
719.00,0.1382
718.50,0.1389
718.00,0.1398
717.50,0.1407
717.00,0.1418
716.50,0.1431
716.00,0.1446
715.50,0.1462
715.00,0.1481
714.50,0.1502
714.00,0.1526
713.50,0.1553
713.00,0.1581
712.50,0.1613
712.00,0.1646
711.50,0.1681
711.00,0.1718
710.50,0.1756
710.00,0.1794
709.50,0.1831
709.00,0.1867
708.50,0.1900
708.00,0.1931
707.50,0.1958
707.00,0.1981
706.50,0.2001
706.00,0.2016
705.50,0.2029
705.00,0.2039
704.50,0.2046
704.00,0.2050
703.50,0.2052
703.00,0.2051
702.50,0.2050
702.00,0.2048
701.50,0.2044
701.00,0.2040
700.50,0.2035
700.00,0.2029
699.50,0.2025
699.00,0.2020
698.50,0.2016
698.00,0.2012
697.50,0.2009
697.00,0.2006
696.50,0.2005
696.00,0.2005
695.50,0.2006
695.00,0.2008
694.50,0.2010
694.00,0.2013
693.50,0.2016
693.00,0.2020
692.50,0.2024
692.00,0.2027
691.50,0.2030
691.00,0.2033
690.50,0.2035
690.00,0.2036
689.50,0.2035
689.00,0.2032
688.50,0.2027
688.00,0.2021
687.50,0.2011
687.00,0.2000
686.50,0.1986
686.00,0.1969
685.50,0.1950
685.00,0.1929
684.50,0.1906
684.00,0.1882
683.50,0.1858
683.00,0.1832
682.50,0.1807
682.00,0.1783
681.50,0.1760
681.00,0.1738
680.50,0.1717
680.00,0.1697
679.50,0.1677
679.00,0.1659
678.50,0.1641
678.00,0.1625
677.50,0.1611
677.00,0.1598
676.50,0.1585
676.00,0.1573
675.50,0.1562
675.00,0.1552
674.50,0.1542
674.00,0.1534
673.50,0.1527
673.00,0.1520
672.50,0.1514
672.00,0.1509
671.50,0.1505
671.00,0.1502
670.50,0.1501
670.00,0.1501
669.50,0.1501
669.00,0.1503
668.50,0.1507
668.00,0.1513
667.50,0.1518
667.00,0.1519
666.50,0.1519
666.00,0.1519
665.50,0.1521
665.00,0.1526
664.50,0.1534
664.00,0.1543
663.50,0.1553
663.00,0.1565
662.50,0.1576
662.00,0.1586
661.50,0.1592
661.00,0.1592
660.50,0.1584
660.00,0.1564
659.50,0.1528
659.00,0.1479
658.50,0.1418
658.00,0.1352
657.50,0.1286
657.00,0.1225
656.50,0.1172
656.00,0.1127
655.50,0.1089
655.00,0.1059
654.50,0.1035
654.00,0.1015
653.50,0.0998
653.00,0.0984
652.50,0.0973
652.00,0.0963
651.50,0.0955
651.00,0.0948
650.50,0.0943
650.00,0.0938
649.50,0.0934
649.00,0.0931
648.50,0.0929
648.00,0.0927
647.50,0.0925
647.00,0.0924
646.50,0.0924
646.00,0.0924
645.50,0.0925
645.00,0.0926
644.50,0.0927
644.00,0.0928
643.50,0.0930
643.00,0.0931
642.50,0.0934
642.00,0.0936
641.50,0.0938
641.00,0.0940
640.50,0.0943
640.00,0.0946
639.50,0.0949
639.00,0.0952
638.50,0.0955
638.00,0.0958
637.50,0.0961
637.00,0.0964
636.50,0.0968
636.00,0.0971
635.50,0.0974
635.00,0.0976
634.50,0.0978
634.00,0.0980
633.50,0.0982
633.00,0.0984
632.50,0.0987
632.00,0.0989
631.50,0.0990
631.00,0.0992
630.50,0.0993
630.00,0.0994
629.50,0.0995
629.00,0.0995
628.50,0.0996
628.00,0.0996
627.50,0.0996
627.00,0.0996
626.50,0.0996
626.00,0.0996
625.50,0.0995
625.00,0.0995
624.50,0.0994
624.00,0.0994
623.50,0.0993
623.00,0.0991
622.50,0.0990
622.00,0.0989
621.50,0.0988
621.00,0.0987
620.50,0.0985
620.00,0.0984
619.50,0.0982
619.00,0.0981
618.50,0.0980
618.00,0.0980
617.50,0.0979
617.00,0.0978
616.50,0.0979
616.00,0.0979
615.50,0.0979
615.00,0.0979
614.50,0.0978
614.00,0.0977
613.50,0.0977
613.00,0.0976
612.50,0.0976
612.00,0.0976
611.50,0.0977
611.00,0.0979
610.50,0.0981
610.00,0.0984
609.50,0.0988
609.00,0.0993
608.50,0.1001
608.00,0.1010
607.50,0.1021
607.00,0.1034
606.50,0.1049
606.00,0.1066
605.50,0.1085
605.00,0.1105
604.50,0.1127
604.00,0.1150
603.50,0.1173
603.00,0.1195
602.50,0.1215
602.00,0.1232
601.50,0.1245
601.00,0.1254
600.50,0.1259
600.00,0.1260
