Created as New Dataset,Sample 013 By USER Date 3 9 2009
cm-1,A
4000.00,0.0337
3999.50,0.0337
3999.00,0.0337
3998.50,0.0337
3998.00,0.0337
3997.50,0.0337
3997.00,0.0337
3996.50,0.0337
3996.00,0.0337
3995.50,0.0337
3995.00,0.0337
3994.50,0.0337
3994.00,0.0337
3993.50,0.0337
3993.00,0.0337
3992.50,0.0337
3992.00,0.0337
3991.50,0.0337
3991.00,0.0337
3990.50,0.0337
3990.00,0.0337
3989.50,0.0337
3989.00,0.0337
3988.50,0.0337
3988.00,0.0337
3987.50,0.0336
3987.00,0.0336
3986.50,0.0336
3986.00,0.0336
3985.50,0.0336
3985.00,0.0336
3984.50,0.0336
3984.00,0.0336
3983.50,0.0336
3983.00,0.0336
3982.50,0.0336
3982.00,0.0336
3981.50,0.0336
3981.00,0.0336
3980.50,0.0336
3980.00,0.0336
3979.50,0.0336
3979.00,0.0336
3978.50,0.0336
3978.00,0.0336
3977.50,0.0335
3977.00,0.0335
3976.50,0.0335
3976.00,0.0335
3975.50,0.0335
3975.00,0.0335
3974.50,0.0336
3974.00,0.0336
3973.50,0.0336
3973.00,0.0336
3972.50,0.0335
3972.00,0.0335
3971.50,0.0335
3971.00,0.0335
3970.50,0.0335
3970.00,0.0335
3969.50,0.0335
3969.00,0.0335
3968.50,0.0335
3968.00,0.0335
3967.50,0.0335
3967.00,0.0335
3966.50,0.0335
3966.00,0.0334
3965.50,0.0334
3965.00,0.0334
3964.50,0.0334
3964.00,0.0334
3963.50,0.0334
3963.00,0.0334
3962.50,0.0334
3962.00,0.0334
3961.50,0.0334
3961.00,0.0334
3960.50,0.0334
3960.00,0.0334
3959.50,0.0334
3959.00,0.0334
3958.50,0.0334
3958.00,0.0334
3957.50,0.0334
3957.00,0.0334
3956.50,0.0334
3956.00,0.0334
3955.50,0.0334
3955.00,0.0334
3954.50,0.0334
3954.00,0.0334
3953.50,0.0334
3953.00,0.0334
3952.50,0.0334
3952.00,0.0334
3951.50,0.0334
3951.00,0.0334
3950.50,0.0335
3950.00,0.0334
3949.50,0.0334
3949.00,0.0333
3948.50,0.0333
3948.00,0.0332
3947.50,0.0332
3947.00,0.0332
3946.50,0.0332
3946.00,0.0333
3945.50,0.0333
3945.00,0.0333
3944.50,0.0334
3944.00,0.0334
3943.50,0.0334
3943.00,0.0335
3942.50,0.0335
3942.00,0.0334
3941.50,0.0334
3941.00,0.0334
3940.50,0.0334
3940.00,0.0334
3939.50,0.0334
3939.00,0.0334
3938.50,0.0334
3938.00,0.0333
3937.50,0.0333
3937.00,0.0333
3936.50,0.0333
3936.00,0.0333
3935.50,0.0333
3935.00,0.0333
3934.50,0.0333
3934.00,0.0332
3933.50,0.0331
3933.00,0.0331
3932.50,0.0330
3932.00,0.0331
3931.50,0.0332
3931.00,0.0333
3930.50,0.0334
3930.00,0.0334
3929.50,0.0334
3929.00,0.0334
3928.50,0.0334
3928.00,0.0333
3927.50,0.0333
3927.00,0.0334
3926.50,0.0334
3926.00,0.0335
3925.50,0.0335
3925.00,0.0336
3924.50,0.0336
3924.00,0.0335
3923.50,0.0334
3923.00,0.0334
3922.50,0.0333
3922.00,0.0333
3921.50,0.0333
3921.00,0.0333
3920.50,0.0333
3920.00,0.0332
3919.50,0.0332
3919.00,0.0331
3918.50,0.0331
3918.00,0.0330
3917.50,0.0330
3917.00,0.0331
3916.50,0.0332
3916.00,0.0332
3915.50,0.0333
3915.00,0.0333
3914.50,0.0333
3914.00,0.0333
3913.50,0.0333
3913.00,0.0333
3912.50,0.0333
3912.00,0.0333
3911.50,0.0333
3911.00,0.0333
3910.50,0.0333
3910.00,0.0333
3909.50,0.0333
3909.00,0.0333
3908.50,0.0333
3908.00,0.0333
3907.50,0.0334
3907.00,0.0334
3906.50,0.0335
3906.00,0.0336
3905.50,0.0337
3905.00,0.0337
3904.50,0.0336
3904.00,0.0334
3903.50,0.0332
3903.00,0.0330
3902.50,0.0329
3902.00,0.0329
3901.50,0.0328
3901.00,0.0329
3900.50,0.0330
3900.00,0.0332
3899.50,0.0334
3899.00,0.0335
3898.50,0.0336
3898.00,0.0336
3897.50,0.0335
3897.00,0.0335
3896.50,0.0334
3896.00,0.0334
3895.50,0.0334
3895.00,0.0334
3894.50,0.0335
3894.00,0.0335
3893.50,0.0336
3893.00,0.0336
3892.50,0.0337
3892.00,0.0338
3891.50,0.0338
3891.00,0.0338
3890.50,0.0337
3890.00,0.0336
3889.50,0.0335
3889.00,0.0334
3888.50,0.0333
3888.00,0.0333
3887.50,0.0333
3887.00,0.0332
3886.50,0.0332
3886.00,0.0332
3885.50,0.0332
3885.00,0.0334
3884.50,0.0334
3884.00,0.0335
3883.50,0.0335
3883.00,0.0335
3882.50,0.0335
3882.00,0.0335
3881.50,0.0335
3881.00,0.0336
3880.50,0.0336
3880.00,0.0335
3879.50,0.0335
3879.00,0.0335
3878.50,0.0335
3878.00,0.0335
3877.50,0.0335
3877.00,0.0335
3876.50,0.0335
3876.00,0.0335
3875.50,0.0335
3875.00,0.0336
3874.50,0.0337
3874.00,0.0337
3873.50,0.0336
3873.00,0.0336
3872.50,0.0336
3872.00,0.0337
3871.50,0.0337
3871.00,0.0336
3870.50,0.0335
3870.00,0.0335
3869.50,0.0335
3869.00,0.0335
3868.50,0.0335
3868.00,0.0335
3867.50,0.0336
3867.00,0.0336
3866.50,0.0337
3866.00,0.0337
3865.50,0.0338
3865.00,0.0338
3864.50,0.0338
3864.00,0.0338
3863.50,0.0338
3863.00,0.0338
3862.50,0.0338
3862.00,0.0338
3861.50,0.0338
3861.00,0.0337
3860.50,0.0337
3860.00,0.0336
3859.50,0.0335
3859.00,0.0335
3858.50,0.0336
3858.00,0.0337
3857.50,0.0338
3857.00,0.0340
3856.50,0.0343
3856.00,0.0346
3855.50,0.0349
3855.00,0.0351
3854.50,0.0351
3854.00,0.0350
3853.50,0.0349
3853.00,0.0347
3852.50,0.0345
3852.00,0.0343
3851.50,0.0342
3851.00,0.0342
3850.50,0.0341
3850.00,0.0341
3849.50,0.0341
3849.00,0.0341
3848.50,0.0341
3848.00,0.0341
3847.50,0.0341
3847.00,0.0341
3846.50,0.0342
3846.00,0.0343
3845.50,0.0344
3845.00,0.0345
3844.50,0.0345
3844.00,0.0346
3843.50,0.0345
3843.00,0.0345
3842.50,0.0345
3842.00,0.0345
3841.50,0.0345
3841.00,0.0346
3840.50,0.0346
3840.00,0.0347
3839.50,0.0348
3839.00,0.0348
3838.50,0.0349
3838.00,0.0350
3837.50,0.0351
3837.00,0.0351
3836.50,0.0351
3836.00,0.0352
3835.50,0.0352
3835.00,0.0352
3834.50,0.0352
3834.00,0.0351
3833.50,0.0351
3833.00,0.0352
3832.50,0.0352
3832.00,0.0351
3831.50,0.0351
3831.00,0.0351
3830.50,0.0351
3830.00,0.0351
3829.50,0.0351
3829.00,0.0351
3828.50,0.0351
3828.00,0.0351
3827.50,0.0352
3827.00,0.0352
3826.50,0.0352
3826.00,0.0352
3825.50,0.0352
3825.00,0.0352
3824.50,0.0352
3824.00,0.0352
3823.50,0.0353
3823.00,0.0353
3822.50,0.0353
3822.00,0.0353
3821.50,0.0353
3821.00,0.0355
3820.50,0.0356
3820.00,0.0356
3819.50,0.0355
3819.00,0.0355
3818.50,0.0354
3818.00,0.0354
3817.50,0.0354
3817.00,0.0354
3816.50,0.0355
3816.00,0.0355
3815.50,0.0356
3815.00,0.0356
3814.50,0.0355
3814.00,0.0355
3813.50,0.0355
3813.00,0.0355
3812.50,0.0355
3812.00,0.0355
3811.50,0.0355
3811.00,0.0355
3810.50,0.0355
3810.00,0.0355
3809.50,0.0356
3809.00,0.0357
3808.50,0.0358
3808.00,0.0359
3807.50,0.0360
3807.00,0.0359
3806.50,0.0359
3806.00,0.0358
3805.50,0.0357
3805.00,0.0357
3804.50,0.0357
3804.00,0.0357
3803.50,0.0357
3803.00,0.0358
3802.50,0.0360
3802.00,0.0361
3801.50,0.0363
3801.00,0.0364
3800.50,0.0364
3800.00,0.0364
3799.50,0.0363
3799.00,0.0363
3798.50,0.0363
3798.00,0.0362
3797.50,0.0362
3797.00,0.0362
3796.50,0.0362
3796.00,0.0362
3795.50,0.0363
3795.00,0.0363
3794.50,0.0364
3794.00,0.0365
3793.50,0.0365
3793.00,0.0365
3792.50,0.0366
3792.00,0.0366
3791.50,0.0366
3791.00,0.0367
3790.50,0.0367
3790.00,0.0368
3789.50,0.0368
3789.00,0.0369
3788.50,0.0370
3788.00,0.0370
3787.50,0.0371
3787.00,0.0371
3786.50,0.0371
3786.00,0.0372
3785.50,0.0373
3785.00,0.0374
3784.50,0.0374
3784.00,0.0374
3783.50,0.0375
3783.00,0.0375
3782.50,0.0376
3782.00,0.0376
3781.50,0.0377
3781.00,0.0377
3780.50,0.0378
3780.00,0.0379
3779.50,0.0379
3779.00,0.0380
3778.50,0.0380
3778.00,0.0381
3777.50,0.0381
3777.00,0.0382
3776.50,0.0382
3776.00,0.0382
3775.50,0.0382
3775.00,0.0383
3774.50,0.0383
3774.00,0.0383
3773.50,0.0384
3773.00,0.0384
3772.50,0.0385
3772.00,0.0386
3771.50,0.0386
3771.00,0.0386
3770.50,0.0386
3770.00,0.0386
3769.50,0.0386
3769.00,0.0387
3768.50,0.0387
3768.00,0.0388
3767.50,0.0388
3767.00,0.0388
3766.50,0.0388
3766.00,0.0388
3765.50,0.0388
3765.00,0.0389
3764.50,0.0389
3764.00,0.0389
3763.50,0.0389
3763.00,0.0389
3762.50,0.0390
3762.00,0.0390
3761.50,0.0390
3761.00,0.0390
3760.50,0.0389
3760.00,0.0390
3759.50,0.0390
3759.00,0.0390
3758.50,0.0391
3758.00,0.0391
3757.50,0.0391
3757.00,0.0390
3756.50,0.0390
3756.00,0.0389
3755.50,0.0389
3755.00,0.0389
3754.50,0.0389
3754.00,0.0389
3753.50,0.0389
3753.00,0.0389
3752.50,0.0389
3752.00,0.0389
3751.50,0.0389
3751.00,0.0389
3750.50,0.0389
3750.00,0.0389
3749.50,0.0388
3749.00,0.0388
3748.50,0.0388
3748.00,0.0387
3747.50,0.0386
3747.00,0.0385
3746.50,0.0385
3746.00,0.0385
3745.50,0.0385
3745.00,0.0385
3744.50,0.0386
3744.00,0.0387
3743.50,0.0387
3743.00,0.0386
3742.50,0.0385
3742.00,0.0384
3741.50,0.0383
3741.00,0.0382
3740.50,0.0380
3740.00,0.0380
3739.50,0.0379
3739.00,0.0379
3738.50,0.0379
3738.00,0.0378
3737.50,0.0378
3737.00,0.0378
3736.50,0.0378
3736.00,0.0379
3735.50,0.0380
3735.00,0.0381
3734.50,0.0382
3734.00,0.0382
3733.50,0.0383
3733.00,0.0384
3732.50,0.0385
3732.00,0.0385
3731.50,0.0385
3731.00,0.0385
3730.50,0.0386
3730.00,0.0386
3729.50,0.0386
3729.00,0.0386
3728.50,0.0386
3728.00,0.0386
3727.50,0.0386
3727.00,0.0387
3726.50,0.0387
3726.00,0.0388
3725.50,0.0389
3725.00,0.0391
3724.50,0.0392
3724.00,0.0392
3723.50,0.0393
3723.00,0.0393
3722.50,0.0394
3722.00,0.0394
3721.50,0.0395
3721.00,0.0396
3720.50,0.0397
3720.00,0.0398
3719.50,0.0399
3719.00,0.0400
3718.50,0.0400
3718.00,0.0401
3717.50,0.0401
3717.00,0.0402
3716.50,0.0402
3716.00,0.0403
3715.50,0.0404
3715.00,0.0405
3714.50,0.0406
3714.00,0.0406
3713.50,0.0407
3713.00,0.0407
3712.50,0.0408
3712.00,0.0410
3711.50,0.0412
3711.00,0.0414
3710.50,0.0416
3710.00,0.0417
3709.50,0.0417
3709.00,0.0417
3708.50,0.0418
3708.00,0.0418
3707.50,0.0419
3707.00,0.0420
3706.50,0.0421
3706.00,0.0421
3705.50,0.0422
3705.00,0.0423
3704.50,0.0424
3704.00,0.0425
3703.50,0.0425
3703.00,0.0426
3702.50,0.0427
3702.00,0.0428
3701.50,0.0428
3701.00,0.0428
3700.50,0.0428
3700.00,0.0428
3699.50,0.0427
3699.00,0.0426
3698.50,0.0426
3698.00,0.0426
3697.50,0.0425
3697.00,0.0425
3696.50,0.0425
3696.00,0.0424
3695.50,0.0424
3695.00,0.0423
3694.50,0.0423
3694.00,0.0423
3693.50,0.0423
3693.00,0.0422
3692.50,0.0421
3692.00,0.0421
3691.50,0.0420
3691.00,0.0421
3690.50,0.0421
3690.00,0.0421
3689.50,0.0422
3689.00,0.0421
3688.50,0.0419
3688.00,0.0416
3687.50,0.0414
3687.00,0.0413
3686.50,0.0412
3686.00,0.0412
3685.50,0.0411
3685.00,0.0411
3684.50,0.0410
3684.00,0.0410
3683.50,0.0409
3683.00,0.0408
3682.50,0.0407
3682.00,0.0407
3681.50,0.0406
3681.00,0.0406
3680.50,0.0406
3680.00,0.0406
3679.50,0.0406
3679.00,0.0405
3678.50,0.0405
3678.00,0.0405
3677.50,0.0405
3677.00,0.0404
3676.50,0.0403
3676.00,0.0401
3675.50,0.0402
3675.00,0.0403
3674.50,0.0405
3674.00,0.0405
3673.50,0.0404
3673.00,0.0404
3672.50,0.0404
3672.00,0.0404
3671.50,0.0404
3671.00,0.0405
3670.50,0.0405
3670.00,0.0406
3669.50,0.0407
3669.00,0.0407
3668.50,0.0407
3668.00,0.0407
3667.50,0.0407
3667.00,0.0407
3666.50,0.0407
3666.00,0.0406
3665.50,0.0406
3665.00,0.0406
3664.50,0.0407
3664.00,0.0407
3663.50,0.0408
3663.00,0.0409
3662.50,0.0409
3662.00,0.0410
3661.50,0.0410
3661.00,0.0410
3660.50,0.0411
3660.00,0.0411
3659.50,0.0411
3659.00,0.0412
3658.50,0.0412
3658.00,0.0413
3657.50,0.0413
3657.00,0.0414
3656.50,0.0414
3656.00,0.0415
3655.50,0.0416
3655.00,0.0416
3654.50,0.0416
3654.00,0.0416
3653.50,0.0417
3653.00,0.0417
3652.50,0.0418
3652.00,0.0418
3651.50,0.0418
3651.00,0.0418
3650.50,0.0418
3650.00,0.0419
3649.50,0.0420
3649.00,0.0421
3648.50,0.0421
3648.00,0.0421
3647.50,0.0422
3647.00,0.0423
3646.50,0.0423
3646.00,0.0424
3645.50,0.0424
3645.00,0.0423
3644.50,0.0423
3644.00,0.0424
3643.50,0.0425
3643.00,0.0425
3642.50,0.0426
3642.00,0.0426
3641.50,0.0426
3641.00,0.0425
3640.50,0.0425
3640.00,0.0425
3639.50,0.0425
3639.00,0.0425
3638.50,0.0425
3638.00,0.0424
3637.50,0.0422
3637.00,0.0421
3636.50,0.0421
3636.00,0.0420
3635.50,0.0421
3635.00,0.0421
3634.50,0.0421
3634.00,0.0421
3633.50,0.0421
3633.00,0.0420
3632.50,0.0420
3632.00,0.0420
3631.50,0.0420
3631.00,0.0420
3630.50,0.0419
3630.00,0.0418
3629.50,0.0417
3629.00,0.0417
3628.50,0.0417
3628.00,0.0417
3627.50,0.0417
3627.00,0.0417
3626.50,0.0417
3626.00,0.0416
3625.50,0.0415
3625.00,0.0415
3624.50,0.0414
3624.00,0.0414
3623.50,0.0414
3623.00,0.0414
3622.50,0.0415
3622.00,0.0416
3621.50,0.0417
3621.00,0.0418
3620.50,0.0419
3620.00,0.0419
3619.50,0.0419
3619.00,0.0418
3618.50,0.0418
3618.00,0.0417
3617.50,0.0416
3617.00,0.0415
3616.50,0.0414
3616.00,0.0414
3615.50,0.0414
3615.00,0.0414
3614.50,0.0414
3614.00,0.0414
3613.50,0.0414
3613.00,0.0414
3612.50,0.0414
3612.00,0.0414
3611.50,0.0414
3611.00,0.0414
3610.50,0.0413
3610.00,0.0413
3609.50,0.0412
3609.00,0.0411
3608.50,0.0412
3608.00,0.0413
3607.50,0.0414
3607.00,0.0414
3606.50,0.0415
3606.00,0.0415
3605.50,0.0416
3605.00,0.0416
3604.50,0.0416
3604.00,0.0416
3603.50,0.0416
3603.00,0.0417
3602.50,0.0417
3602.00,0.0417
3601.50,0.0418
3601.00,0.0418
3600.50,0.0418
3600.00,0.0417
3599.50,0.0417
3599.00,0.0417
3598.50,0.0417
3598.00,0.0417
3597.50,0.0416
3597.00,0.0416
3596.50,0.0416
3596.00,0.0416
3595.50,0.0416
3595.00,0.0416
3594.50,0.0417
3594.00,0.0417
3593.50,0.0417
3593.00,0.0417
3592.50,0.0417
3592.00,0.0416
3591.50,0.0416
3591.00,0.0415
3590.50,0.0414
3590.00,0.0414
3589.50,0.0413
3589.00,0.0413
3588.50,0.0413
3588.00,0.0414
3587.50,0.0414
3587.00,0.0415
3586.50,0.0415
3586.00,0.0415
3585.50,0.0414
3585.00,0.0414
3584.50,0.0414
3584.00,0.0414
3583.50,0.0413
3583.00,0.0413
3582.50,0.0413
3582.00,0.0413
3581.50,0.0412
3581.00,0.0412
3580.50,0.0412
3580.00,0.0412
3579.50,0.0412
3579.00,0.0412
3578.50,0.0411
3578.00,0.0411
3577.50,0.0411
3577.00,0.0410
3576.50,0.0410
3576.00,0.0410
3575.50,0.0409
3575.00,0.0409
3574.50,0.0408
3574.00,0.0408
3573.50,0.0408
3573.00,0.0407
3572.50,0.0407
3572.00,0.0406
3571.50,0.0406
3571.00,0.0405
3570.50,0.0405
3570.00,0.0404
3569.50,0.0403
3569.00,0.0402
3568.50,0.0401
3568.00,0.0399
3567.50,0.0399
3567.00,0.0400
3566.50,0.0401
3566.00,0.0402
3565.50,0.0402
3565.00,0.0403
3564.50,0.0403
3564.00,0.0403
3563.50,0.0402
3563.00,0.0402
3562.50,0.0402
3562.00,0.0401
3561.50,0.0401
3561.00,0.0401
3560.50,0.0401
3560.00,0.0401
3559.50,0.0401
3559.00,0.0401
3558.50,0.0400
3558.00,0.0400
3557.50,0.0400
3557.00,0.0399
3556.50,0.0399
3556.00,0.0399
3555.50,0.0398
3555.00,0.0398
3554.50,0.0398
3554.00,0.0398
3553.50,0.0398
3553.00,0.0398
3552.50,0.0398
3552.00,0.0398
3551.50,0.0398
3551.00,0.0397
3550.50,0.0397
3550.00,0.0397
3549.50,0.0396
3549.00,0.0396
3548.50,0.0395
3548.00,0.0395
3547.50,0.0394
3547.00,0.0394
3546.50,0.0394
3546.00,0.0394
3545.50,0.0395
3545.00,0.0395
3544.50,0.0396
3544.00,0.0396
3543.50,0.0396
3543.00,0.0396
3542.50,0.0395
3542.00,0.0395
3541.50,0.0395
3541.00,0.0395
3540.50,0.0395
3540.00,0.0395
3539.50,0.0395
3539.00,0.0395
3538.50,0.0395
3538.00,0.0395
3537.50,0.0395
3537.00,0.0395
3536.50,0.0395
3536.00,0.0395
3535.50,0.0394
3535.00,0.0394
3534.50,0.0394
3534.00,0.0394
3533.50,0.0393
3533.00,0.0393
3532.50,0.0393
3532.00,0.0393
3531.50,0.0393
3531.00,0.0393
3530.50,0.0393
3530.00,0.0393
3529.50,0.0393
3529.00,0.0393
3528.50,0.0393
3528.00,0.0393
3527.50,0.0393
3527.00,0.0392
3526.50,0.0392
3526.00,0.0391
3525.50,0.0391
3525.00,0.0391
3524.50,0.0391
3524.00,0.0391
3523.50,0.0392
3523.00,0.0392
3522.50,0.0392
3522.00,0.0392
3521.50,0.0392
3521.00,0.0392
3520.50,0.0391
3520.00,0.0391
3519.50,0.0391
3519.00,0.0391
3518.50,0.0391
3518.00,0.0391
3517.50,0.0390
3517.00,0.0390
3516.50,0.0390
3516.00,0.0390
3515.50,0.0390
3515.00,0.0390
3514.50,0.0390
3514.00,0.0390
3513.50,0.0389
3513.00,0.0389
3512.50,0.0389
3512.00,0.0389
3511.50,0.0389
3511.00,0.0388
3510.50,0.0388
3510.00,0.0388
3509.50,0.0388
3509.00,0.0388
3508.50,0.0387
3508.00,0.0387
3507.50,0.0387
3507.00,0.0387
3506.50,0.0387
3506.00,0.0387
3505.50,0.0387
3505.00,0.0386
3504.50,0.0386
3504.00,0.0386
3503.50,0.0386
3503.00,0.0386
3502.50,0.0386
3502.00,0.0386
3501.50,0.0386
3501.00,0.0385
3500.50,0.0385
3500.00,0.0385
3499.50,0.0385
3499.00,0.0385
3498.50,0.0385
3498.00,0.0385
3497.50,0.0385
3497.00,0.0385
3496.50,0.0384
3496.00,0.0384
3495.50,0.0384
3495.00,0.0384
3494.50,0.0384
3494.00,0.0384
3493.50,0.0384
3493.00,0.0383
3492.50,0.0383
3492.00,0.0383
3491.50,0.0383
3491.00,0.0382
3490.50,0.0382
3490.00,0.0382
3489.50,0.0382
3489.00,0.0382
3488.50,0.0382
3488.00,0.0382
3487.50,0.0381
3487.00,0.0381
3486.50,0.0381
3486.00,0.0381
3485.50,0.0381
3485.00,0.0381
3484.50,0.0380
3484.00,0.0380
3483.50,0.0380
3483.00,0.0380
3482.50,0.0380
3482.00,0.0380
3481.50,0.0380
3481.00,0.0379
3480.50,0.0379
3480.00,0.0379
3479.50,0.0379
3479.00,0.0378
3478.50,0.0378
3478.00,0.0378
3477.50,0.0378
3477.00,0.0378
3476.50,0.0378
3476.00,0.0378
3475.50,0.0378
3475.00,0.0378
3474.50,0.0377
3474.00,0.0377
3473.50,0.0377
3473.00,0.0377
3472.50,0.0376
3472.00,0.0376
3471.50,0.0376
3471.00,0.0376
3470.50,0.0376
3470.00,0.0375
3469.50,0.0375
3469.00,0.0375
3468.50,0.0375
3468.00,0.0375
3467.50,0.0375
3467.00,0.0374
3466.50,0.0374
3466.00,0.0374
3465.50,0.0374
3465.00,0.0374
3464.50,0.0374
3464.00,0.0373
3463.50,0.0373
3463.00,0.0373
3462.50,0.0373
3462.00,0.0373
3461.50,0.0373
3461.00,0.0373
3460.50,0.0373
3460.00,0.0372
3459.50,0.0372
3459.00,0.0372
3458.50,0.0372
3458.00,0.0371
3457.50,0.0371
3457.00,0.0371
3456.50,0.0371
3456.00,0.0371
3455.50,0.0371
3455.00,0.0371
3454.50,0.0370
3454.00,0.0370
3453.50,0.0370
3453.00,0.0370
3452.50,0.0369
3452.00,0.0369
3451.50,0.0369
3451.00,0.0369
3450.50,0.0369
3450.00,0.0369
3449.50,0.0368
3449.00,0.0368
3448.50,0.0368
3448.00,0.0368
3447.50,0.0368
3447.00,0.0368
3446.50,0.0368
3446.00,0.0367
3445.50,0.0367
3445.00,0.0367
3444.50,0.0367
3444.00,0.0366
3443.50,0.0366
3443.00,0.0366
3442.50,0.0366
3442.00,0.0366
3441.50,0.0366
3441.00,0.0366
3440.50,0.0366
3440.00,0.0366
3439.50,0.0365
3439.00,0.0365
3438.50,0.0365
3438.00,0.0365
3437.50,0.0364
3437.00,0.0364
3436.50,0.0364
3436.00,0.0364
3435.50,0.0364
3435.00,0.0364
3434.50,0.0364
3434.00,0.0364
3433.50,0.0363
3433.00,0.0363
3432.50,0.0363
3432.00,0.0363
3431.50,0.0363
3431.00,0.0363
3430.50,0.0362
3430.00,0.0362
3429.50,0.0362
3429.00,0.0362
3428.50,0.0362
3428.00,0.0362
3427.50,0.0362
3427.00,0.0362
3426.50,0.0361
3426.00,0.0361
3425.50,0.0361
3425.00,0.0361
3424.50,0.0361
3424.00,0.0361
3423.50,0.0360
3423.00,0.0360
3422.50,0.0360
3422.00,0.0360
3421.50,0.0360
3421.00,0.0360
3420.50,0.0360
3420.00,0.0360
3419.50,0.0360
3419.00,0.0360
3418.50,0.0360
3418.00,0.0359
3417.50,0.0359
3417.00,0.0359
3416.50,0.0359
3416.00,0.0359
3415.50,0.0359
3415.00,0.0359
3414.50,0.0359
3414.00,0.0359
3413.50,0.0358
3413.00,0.0358
3412.50,0.0358
3412.00,0.0358
3411.50,0.0358
3411.00,0.0358
3410.50,0.0358
3410.00,0.0358
3409.50,0.0358
3409.00,0.0358
3408.50,0.0358
3408.00,0.0357
3407.50,0.0357
3407.00,0.0357
3406.50,0.0357
3406.00,0.0357
3405.50,0.0357
3405.00,0.0357
3404.50,0.0357
3404.00,0.0357
3403.50,0.0357
3403.00,0.0356
3402.50,0.0356
3402.00,0.0356
3401.50,0.0356
3401.00,0.0356
3400.50,0.0356
3400.00,0.0356
3399.50,0.0356
3399.00,0.0356
3398.50,0.0356
3398.00,0.0356
3397.50,0.0356
3397.00,0.0355
3396.50,0.0355
3396.00,0.0355
3395.50,0.0355
3395.00,0.0355
3394.50,0.0355
3394.00,0.0355
3393.50,0.0355
3393.00,0.0355
3392.50,0.0355
3392.00,0.0354
3391.50,0.0354
3391.00,0.0354
3390.50,0.0354
3390.00,0.0354
3389.50,0.0354
3389.00,0.0354
3388.50,0.0354
3388.00,0.0354
3387.50,0.0354
3387.00,0.0354
3386.50,0.0354
3386.00,0.0354
3385.50,0.0354
3385.00,0.0354
3384.50,0.0354
3384.00,0.0354
3383.50,0.0354
3383.00,0.0353
3382.50,0.0353
3382.00,0.0353
3381.50,0.0353
3381.00,0.0353
3380.50,0.0353
3380.00,0.0353
3379.50,0.0353
3379.00,0.0353
3378.50,0.0353
3378.00,0.0353
3377.50,0.0353
3377.00,0.0353
3376.50,0.0353
3376.00,0.0352
3375.50,0.0352
3375.00,0.0352
3374.50,0.0352
3374.00,0.0352
3373.50,0.0352
3373.00,0.0352
3372.50,0.0352
3372.00,0.0352
3371.50,0.0352
3371.00,0.0352
3370.50,0.0352
3370.00,0.0352
3369.50,0.0352
3369.00,0.0352
3368.50,0.0352
3368.00,0.0352
3367.50,0.0352
3367.00,0.0352
3366.50,0.0352
3366.00,0.0352
3365.50,0.0352
3365.00,0.0352
3364.50,0.0352
3364.00,0.0352
3363.50,0.0352
3363.00,0.0352
3362.50,0.0352
3362.00,0.0352
3361.50,0.0351
3361.00,0.0351
3360.50,0.0351
3360.00,0.0351
3359.50,0.0351
3359.00,0.0351
3358.50,0.0351
3358.00,0.0351
3357.50,0.0351
3357.00,0.0351
3356.50,0.0351
3356.00,0.0351
3355.50,0.0351
3355.00,0.0351
3354.50,0.0351
3354.00,0.0351
3353.50,0.0351
3353.00,0.0351
3352.50,0.0351
3352.00,0.0351
3351.50,0.0351
3351.00,0.0351
3350.50,0.0351
3350.00,0.0351
3349.50,0.0351
3349.00,0.0351
3348.50,0.0351
3348.00,0.0351
3347.50,0.0351
3347.00,0.0351
3346.50,0.0351
3346.00,0.0351
3345.50,0.0350
3345.00,0.0350
3344.50,0.0350
3344.00,0.0350
3343.50,0.0350
3343.00,0.0350
3342.50,0.0350
3342.00,0.0350
3341.50,0.0350
3341.00,0.0350
3340.50,0.0350
3340.00,0.0350
3339.50,0.0350
3339.00,0.0350
3338.50,0.0350
3338.00,0.0350
3337.50,0.0350
3337.00,0.0350
3336.50,0.0350
3336.00,0.0350
3335.50,0.0350
3335.00,0.0350
3334.50,0.0350
3334.00,0.0350
3333.50,0.0349
3333.00,0.0349
3332.50,0.0349
3332.00,0.0349
3331.50,0.0349
3331.00,0.0349
3330.50,0.0349
3330.00,0.0349
3329.50,0.0349
3329.00,0.0349
3328.50,0.0349
3328.00,0.0349
3327.50,0.0349
3327.00,0.0349
3326.50,0.0349
3326.00,0.0349
3325.50,0.0349
3325.00,0.0349
3324.50,0.0349
3324.00,0.0349
3323.50,0.0349
3323.00,0.0349
3322.50,0.0349
3322.00,0.0349
3321.50,0.0349
3321.00,0.0349
3320.50,0.0348
3320.00,0.0348
3319.50,0.0348
3319.00,0.0348
3318.50,0.0348
3318.00,0.0348
3317.50,0.0348
3317.00,0.0348
3316.50,0.0348
3316.00,0.0348
3315.50,0.0348
3315.00,0.0348
3314.50,0.0348
3314.00,0.0348
3313.50,0.0348
3313.00,0.0348
3312.50,0.0348
3312.00,0.0348
3311.50,0.0348
3311.00,0.0348
3310.50,0.0348
3310.00,0.0348
3309.50,0.0348
3309.00,0.0348
3308.50,0.0348
3308.00,0.0348
3307.50,0.0348
3307.00,0.0348
3306.50,0.0348
3306.00,0.0348
3305.50,0.0348
3305.00,0.0348
3304.50,0.0348
3304.00,0.0348
3303.50,0.0348
3303.00,0.0348
3302.50,0.0348
3302.00,0.0348
3301.50,0.0348
3301.00,0.0348
3300.50,0.0348
3300.00,0.0348
3299.50,0.0348
3299.00,0.0348
3298.50,0.0348
3298.00,0.0348
3297.50,0.0348
3297.00,0.0348
3296.50,0.0348
3296.00,0.0348
3295.50,0.0348
3295.00,0.0348
3294.50,0.0348
3294.00,0.0348
3293.50,0.0348
3293.00,0.0348
3292.50,0.0348
3292.00,0.0348
3291.50,0.0348
3291.00,0.0348
3290.50,0.0348
3290.00,0.0348
3289.50,0.0347
3289.00,0.0347
3288.50,0.0347
3288.00,0.0347
3287.50,0.0347
3287.00,0.0348
3286.50,0.0348
3286.00,0.0348
3285.50,0.0348
3285.00,0.0348
3284.50,0.0348
3284.00,0.0348
3283.50,0.0348
3283.00,0.0348
3282.50,0.0348
3282.00,0.0348
3281.50,0.0348
3281.00,0.0348
3280.50,0.0348
3280.00,0.0347
3279.50,0.0347
3279.00,0.0347
3278.50,0.0347
3278.00,0.0347
3277.50,0.0347
3277.00,0.0348
3276.50,0.0348
3276.00,0.0348
3275.50,0.0348
3275.00,0.0348
3274.50,0.0348
3274.00,0.0348
3273.50,0.0348
3273.00,0.0348
3272.50,0.0348
3272.00,0.0348
3271.50,0.0348
3271.00,0.0348
3270.50,0.0348
3270.00,0.0348
3269.50,0.0348
3269.00,0.0348
3268.50,0.0348
3268.00,0.0348
3267.50,0.0348
3267.00,0.0348
3266.50,0.0348
3266.00,0.0348
3265.50,0.0348
3265.00,0.0348
3264.50,0.0348
3264.00,0.0348
3263.50,0.0348
3263.00,0.0348
3262.50,0.0348
3262.00,0.0348
3261.50,0.0348
3261.00,0.0348
3260.50,0.0348
3260.00,0.0348
3259.50,0.0348
3259.00,0.0348
3258.50,0.0348
3258.00,0.0348
3257.50,0.0348
3257.00,0.0349
3256.50,0.0349
3256.00,0.0349
3255.50,0.0348
3255.00,0.0348
3254.50,0.0348
3254.00,0.0348
3253.50,0.0349
3253.00,0.0349
3252.50,0.0349
3252.00,0.0349
3251.50,0.0349
3251.00,0.0349
3250.50,0.0349
3250.00,0.0349
3249.50,0.0349
3249.00,0.0349
3248.50,0.0349
3248.00,0.0349
3247.50,0.0349
3247.00,0.0349
3246.50,0.0349
3246.00,0.0349
3245.50,0.0349
3245.00,0.0349
3244.50,0.0349
3244.00,0.0350
3243.50,0.0350
3243.00,0.0350
3242.50,0.0350
3242.00,0.0350
3241.50,0.0350
3241.00,0.0350
3240.50,0.0350
3240.00,0.0350
3239.50,0.0350
3239.00,0.0350
3238.50,0.0350
3238.00,0.0350
3237.50,0.0350
3237.00,0.0350
3236.50,0.0350
3236.00,0.0350
3235.50,0.0350
3235.00,0.0351
3234.50,0.0351
3234.00,0.0351
3233.50,0.0351
3233.00,0.0351
3232.50,0.0351
3232.00,0.0351
3231.50,0.0351
3231.00,0.0351
3230.50,0.0351
3230.00,0.0352
3229.50,0.0352
3229.00,0.0352
3228.50,0.0352
3228.00,0.0352
3227.50,0.0352
3227.00,0.0352
3226.50,0.0352
3226.00,0.0352
3225.50,0.0352
3225.00,0.0352
3224.50,0.0352
3224.00,0.0352
3223.50,0.0352
3223.00,0.0352
3222.50,0.0353
3222.00,0.0353
3221.50,0.0353
3221.00,0.0353
3220.50,0.0353
3220.00,0.0353
3219.50,0.0353
3219.00,0.0353
3218.50,0.0353
3218.00,0.0353
3217.50,0.0353
3217.00,0.0353
3216.50,0.0353
3216.00,0.0353
3215.50,0.0354
3215.00,0.0354
3214.50,0.0354
3214.00,0.0354
3213.50,0.0354
3213.00,0.0354
3212.50,0.0354
3212.00,0.0354
3211.50,0.0354
3211.00,0.0354
3210.50,0.0354
3210.00,0.0354
3209.50,0.0355
3209.00,0.0355
3208.50,0.0355
3208.00,0.0355
3207.50,0.0355
3207.00,0.0355
3206.50,0.0355
3206.00,0.0356
3205.50,0.0356
3205.00,0.0356
3204.50,0.0356
3204.00,0.0356
3203.50,0.0356
3203.00,0.0356
3202.50,0.0356
3202.00,0.0356
3201.50,0.0356
3201.00,0.0356
3200.50,0.0357
3200.00,0.0357
3199.50,0.0357
3199.00,0.0357
3198.50,0.0357
3198.00,0.0357
3197.50,0.0357
3197.00,0.0358
3196.50,0.0358
3196.00,0.0358
3195.50,0.0358
3195.00,0.0358
3194.50,0.0358
3194.00,0.0358
3193.50,0.0358
3193.00,0.0359
3192.50,0.0359
3192.00,0.0359
3191.50,0.0359
3191.00,0.0359
3190.50,0.0359
3190.00,0.0360
3189.50,0.0360
3189.00,0.0360
3188.50,0.0360
3188.00,0.0360
3187.50,0.0360
3187.00,0.0361
3186.50,0.0361
3186.00,0.0361
3185.50,0.0361
3185.00,0.0361
3184.50,0.0361
3184.00,0.0361
3183.50,0.0361
3183.00,0.0361
3182.50,0.0361
3182.00,0.0361
3181.50,0.0361
3181.00,0.0362
3180.50,0.0362
3180.00,0.0361
3179.50,0.0361
3179.00,0.0362
3178.50,0.0362
3178.00,0.0362
3177.50,0.0362
3177.00,0.0362
3176.50,0.0362
3176.00,0.0362
3175.50,0.0362
3175.00,0.0362
3174.50,0.0362
3174.00,0.0363
3173.50,0.0363
3173.00,0.0363
3172.50,0.0363
3172.00,0.0363
3171.50,0.0363
3171.00,0.0364
3170.50,0.0364
3170.00,0.0364
3169.50,0.0364
3169.00,0.0364
3168.50,0.0364
3168.00,0.0365
3167.50,0.0365
3167.00,0.0365
3166.50,0.0365
3166.00,0.0365
3165.50,0.0365
3165.00,0.0366
3164.50,0.0366
3164.00,0.0366
3163.50,0.0366
3163.00,0.0366
3162.50,0.0367
3162.00,0.0367
3161.50,0.0367
3161.00,0.0367
3160.50,0.0368
3160.00,0.0368
3159.50,0.0368
3159.00,0.0368
3158.50,0.0369
3158.00,0.0369
3157.50,0.0369
3157.00,0.0370
3156.50,0.0370
3156.00,0.0370
3155.50,0.0370
3155.00,0.0371
3154.50,0.0371
3154.00,0.0371
3153.50,0.0372
3153.00,0.0372
3152.50,0.0372
3152.00,0.0372
3151.50,0.0373
3151.00,0.0373
3150.50,0.0374
3150.00,0.0374
3149.50,0.0374
3149.00,0.0375
3148.50,0.0375
3148.00,0.0375
3147.50,0.0376
3147.00,0.0376
3146.50,0.0376
3146.00,0.0377
3145.50,0.0377
3145.00,0.0378
3144.50,0.0378
3144.00,0.0378
3143.50,0.0379
3143.00,0.0379
3142.50,0.0380
3142.00,0.0380
3141.50,0.0381
3141.00,0.0381
3140.50,0.0382
3140.00,0.0382
3139.50,0.0383
3139.00,0.0383
3138.50,0.0384
3138.00,0.0384
3137.50,0.0385
3137.00,0.0385
3136.50,0.0386
3136.00,0.0386
3135.50,0.0387
3135.00,0.0388
3134.50,0.0388
3134.00,0.0389
3133.50,0.0389
3133.00,0.0390
3132.50,0.0390
3132.00,0.0391
3131.50,0.0391
3131.00,0.0392
3130.50,0.0393
3130.00,0.0393
3129.50,0.0394
3129.00,0.0395
3128.50,0.0395
3128.00,0.0396
3127.50,0.0397
3127.00,0.0397
3126.50,0.0398
3126.00,0.0399
3125.50,0.0399
3125.00,0.0400
3124.50,0.0400
3124.00,0.0401
3123.50,0.0402
3123.00,0.0402
3122.50,0.0403
3122.00,0.0403
3121.50,0.0404
3121.00,0.0404
3120.50,0.0405
3120.00,0.0405
3119.50,0.0406
3119.00,0.0407
3118.50,0.0407
3118.00,0.0408
3117.50,0.0408
3117.00,0.0409
3116.50,0.0409
3116.00,0.0410
3115.50,0.0410
3115.00,0.0410
3114.50,0.0411
3114.00,0.0411
3113.50,0.0412
3113.00,0.0412
3112.50,0.0413
3112.00,0.0413
3111.50,0.0413
3111.00,0.0413
3110.50,0.0414
3110.00,0.0414
3109.50,0.0414
3109.00,0.0415
3108.50,0.0415
3108.00,0.0415
3107.50,0.0415
3107.00,0.0416
3106.50,0.0416
3106.00,0.0416
3105.50,0.0416
3105.00,0.0416
3104.50,0.0416
3104.00,0.0417
3103.50,0.0417
3103.00,0.0417
3102.50,0.0417
3102.00,0.0417
3101.50,0.0417
3101.00,0.0418
3100.50,0.0418
3100.00,0.0418
3099.50,0.0418
3099.00,0.0419
3098.50,0.0419
3098.00,0.0419
3097.50,0.0419
3097.00,0.0419
3096.50,0.0419
3096.00,0.0419
3095.50,0.0419
3095.00,0.0420
3094.50,0.0420
3094.00,0.0420
3093.50,0.0420
3093.00,0.0421
3092.50,0.0421
3092.00,0.0421
3091.50,0.0421
3091.00,0.0421
3090.50,0.0422
3090.00,0.0422
3089.50,0.0422
3089.00,0.0423
3088.50,0.0423
3088.00,0.0423
3087.50,0.0423
3087.00,0.0424
3086.50,0.0424
3086.00,0.0424
3085.50,0.0425
3085.00,0.0425
3084.50,0.0425
3084.00,0.0426
3083.50,0.0426
3083.00,0.0427
3082.50,0.0427
3082.00,0.0427
3081.50,0.0428
3081.00,0.0428
3080.50,0.0428
3080.00,0.0429
3079.50,0.0429
3079.00,0.0429
3078.50,0.0430
3078.00,0.0430
3077.50,0.0431
3077.00,0.0431
3076.50,0.0432
3076.00,0.0432
3075.50,0.0433
3075.00,0.0433
3074.50,0.0434
3074.00,0.0434
3073.50,0.0435
3073.00,0.0435
3072.50,0.0436
3072.00,0.0436
3071.50,0.0437
3071.00,0.0437
3070.50,0.0438
3070.00,0.0438
3069.50,0.0439
3069.00,0.0439
3068.50,0.0440
3068.00,0.0441
3067.50,0.0441
3067.00,0.0442
3066.50,0.0443
3066.00,0.0444
3065.50,0.0445
3065.00,0.0445
3064.50,0.0446
3064.00,0.0447
3063.50,0.0448
3063.00,0.0449
3062.50,0.0450
3062.00,0.0451
3061.50,0.0452
3061.00,0.0453
3060.50,0.0454
3060.00,0.0455
3059.50,0.0456
3059.00,0.0457
3058.50,0.0458
3058.00,0.0459
3057.50,0.0461
3057.00,0.0462
3056.50,0.0463
3056.00,0.0464
3055.50,0.0465
3055.00,0.0466
3054.50,0.0466
3054.00,0.0467
3053.50,0.0467
3053.00,0.0467
3052.50,0.0467
3052.00,0.0467
3051.50,0.0467
3051.00,0.0466
3050.50,0.0466
3050.00,0.0465
3049.50,0.0464
3049.00,0.0463
3048.50,0.0461
3048.00,0.0460
3047.50,0.0459
3047.00,0.0458
3046.50,0.0457
3046.00,0.0456
3045.50,0.0455
3045.00,0.0454
3044.50,0.0453
3044.00,0.0453
3043.50,0.0452
3043.00,0.0451
3042.50,0.0451
3042.00,0.0451
3041.50,0.0450
3041.00,0.0450
3040.50,0.0449
3040.00,0.0449
3039.50,0.0449
3039.00,0.0449
3038.50,0.0448
3038.00,0.0448
3037.50,0.0448
3037.00,0.0448
3036.50,0.0448
3036.00,0.0448
3035.50,0.0448
3035.00,0.0448
3034.50,0.0448
3034.00,0.0448
3033.50,0.0448
3033.00,0.0448
3032.50,0.0448
3032.00,0.0448
3031.50,0.0448
3031.00,0.0448
3030.50,0.0449
3030.00,0.0449
3029.50,0.0449
3029.00,0.0450
3028.50,0.0450
3028.00,0.0451
3027.50,0.0451
3027.00,0.0451
3026.50,0.0452
3026.00,0.0453
3025.50,0.0453
3025.00,0.0454
3024.50,0.0455
3024.00,0.0456
3023.50,0.0456
3023.00,0.0457
3022.50,0.0458
3022.00,0.0459
3021.50,0.0460
3021.00,0.0461
3020.50,0.0462
3020.00,0.0463
3019.50,0.0464
3019.00,0.0465
3018.50,0.0466
3018.00,0.0467
3017.50,0.0467
3017.00,0.0468
3016.50,0.0469
3016.00,0.0470
3015.50,0.0471
3015.00,0.0472
3014.50,0.0473
3014.00,0.0473
3013.50,0.0474
3013.00,0.0475
3012.50,0.0476
3012.00,0.0477
3011.50,0.0477
3011.00,0.0478
3010.50,0.0479
3010.00,0.0480
3009.50,0.0481
3009.00,0.0482
3008.50,0.0483
3008.00,0.0484
3007.50,0.0485
3007.00,0.0486
3006.50,0.0487
3006.00,0.0489
3005.50,0.0490
3005.00,0.0492
3004.50,0.0493
3004.00,0.0495
3003.50,0.0497
3003.00,0.0499
3002.50,0.0502
3002.00,0.0504
3001.50,0.0507
3001.00,0.0510
3000.50,0.0513
3000.00,0.0516
2999.50,0.0520
2999.00,0.0523
2998.50,0.0528
2998.00,0.0532
2997.50,0.0537
2997.00,0.0542
2996.50,0.0547
2996.00,0.0553
2995.50,0.0559
2995.00,0.0565
2994.50,0.0572
2994.00,0.0579
2993.50,0.0586
2993.00,0.0594
2992.50,0.0603
2992.00,0.0611
2991.50,0.0621
2991.00,0.0631
2990.50,0.0642
2990.00,0.0653
2989.50,0.0665
2989.00,0.0678
2988.50,0.0691
2988.00,0.0705
2987.50,0.0720
2987.00,0.0735
2986.50,0.0752
2986.00,0.0770
2985.50,0.0788
2985.00,0.0808
2984.50,0.0827
2984.00,0.0846
2983.50,0.0865
2983.00,0.0885
2982.50,0.0907
2982.00,0.0934
2981.50,0.0966
2981.00,0.1003
2980.50,0.1042
2980.00,0.1084
2979.50,0.1129
2979.00,0.1177
2978.50,0.1229
2978.00,0.1283
2977.50,0.1341
2977.00,0.1402
2976.50,0.1467
2976.00,0.1536
2975.50,0.1608
2975.00,0.1685
2974.50,0.1766
2974.00,0.1851
2973.50,0.1940
2973.00,0.2034
2972.50,0.2132
2972.00,0.2233
2971.50,0.2339
2971.00,0.2449
2970.50,0.2564
2970.00,0.2683
2969.50,0.2804
2969.00,0.2925
2968.50,0.3044
2968.00,0.3159
2967.50,0.3270
2967.00,0.3375
2966.50,0.3473
2966.00,0.3562
2965.50,0.3641
2965.00,0.3706
2964.50,0.3758
2964.00,0.3794
2963.50,0.3814
2963.00,0.3817
2962.50,0.3802
2962.00,0.3770
2961.50,0.3722
2961.00,0.3659
2960.50,0.3582
2960.00,0.3492
2959.50,0.3392
2959.00,0.3284
2958.50,0.3169
2958.00,0.3051
2957.50,0.2930
2957.00,0.2808
2956.50,0.2687
2956.00,0.2569
2955.50,0.2454
2955.00,0.2343
2954.50,0.2236
2954.00,0.2134
2953.50,0.2038
2953.00,0.1947
2952.50,0.1862
2952.00,0.1782
2951.50,0.1706
2951.00,0.1636
2950.50,0.1570
2950.00,0.1509
2949.50,0.1451
2949.00,0.1398
2948.50,0.1347
2948.00,0.1300
2947.50,0.1256
2947.00,0.1216
2946.50,0.1178
2946.00,0.1143
2945.50,0.1110
2945.00,0.1080
2944.50,0.1051
2944.00,0.1024
2943.50,0.1000
2943.00,0.0976
2942.50,0.0955
2942.00,0.0934
2941.50,0.0915
2941.00,0.0897
2940.50,0.0881
2940.00,0.0865
2939.50,0.0850
2939.00,0.0836
2938.50,0.0823
2938.00,0.0811
2937.50,0.0800
2937.00,0.0789
2936.50,0.0779
2936.00,0.0770
2935.50,0.0761
2935.00,0.0753
2934.50,0.0745
2934.00,0.0738
2933.50,0.0731
2933.00,0.0725
2932.50,0.0719
2932.00,0.0713
2931.50,0.0708
2931.00,0.0704
2930.50,0.0700
2930.00,0.0697
2929.50,0.0694
2929.00,0.0692
2928.50,0.0689
2928.00,0.0687
2927.50,0.0686
2927.00,0.0685
2926.50,0.0684
2926.00,0.0684
2925.50,0.0684
2925.00,0.0684
2924.50,0.0684
2924.00,0.0685
2923.50,0.0686
2923.00,0.0688
2922.50,0.0689
2922.00,0.0691
2921.50,0.0693
2921.00,0.0696
2920.50,0.0699
2920.00,0.0702
2919.50,0.0705
2919.00,0.0709
2918.50,0.0713
2918.00,0.0718
2917.50,0.0723
2917.00,0.0728
2916.50,0.0734
2916.00,0.0741
2915.50,0.0749
2915.00,0.0757
2914.50,0.0765
2914.00,0.0775
2913.50,0.0785
2913.00,0.0796
2912.50,0.0808
2912.00,0.0820
2911.50,0.0832
2911.00,0.0845
2910.50,0.0858
2910.00,0.0871
2909.50,0.0884
2909.00,0.0897
2908.50,0.0909
2908.00,0.0920
2907.50,0.0930
2907.00,0.0938
2906.50,0.0945
2906.00,0.0950
2905.50,0.0953
2905.00,0.0954
2904.50,0.0953
2904.00,0.0949
2903.50,0.0944
2903.00,0.0936
2902.50,0.0928
2902.00,0.0917
2901.50,0.0905
2901.00,0.0892
2900.50,0.0879
2900.00,0.0864
2899.50,0.0850
2899.00,0.0834
2898.50,0.0819
2898.00,0.0804
2897.50,0.0790
2897.00,0.0775
2896.50,0.0761
2896.00,0.0747
2895.50,0.0733
2895.00,0.0720
2894.50,0.0708
2894.00,0.0696
2893.50,0.0685
2893.00,0.0674
2892.50,0.0664
2892.00,0.0654
2891.50,0.0645
2891.00,0.0636
2890.50,0.0628
2890.00,0.0620
2889.50,0.0613
2889.00,0.0607
2888.50,0.0601
2888.00,0.0595
2887.50,0.0589
2887.00,0.0584
2886.50,0.0579
2886.00,0.0575
2885.50,0.0570
2885.00,0.0565
2884.50,0.0561
2884.00,0.0556
2883.50,0.0552
2883.00,0.0549
2882.50,0.0546
2882.00,0.0543
2881.50,0.0540
2881.00,0.0538
2880.50,0.0535
2880.00,0.0533
2879.50,0.0530
2879.00,0.0528
2878.50,0.0526
2878.00,0.0523
2877.50,0.0521
2877.00,0.0518
2876.50,0.0516
2876.00,0.0514
2875.50,0.0511
2875.00,0.0509
2874.50,0.0506
2874.00,0.0504
2873.50,0.0501
2873.00,0.0498
2872.50,0.0496
2872.00,0.0493
2871.50,0.0491
2871.00,0.0489
2870.50,0.0486
2870.00,0.0484
2869.50,0.0482
2869.00,0.0480
2868.50,0.0478
2868.00,0.0477
2867.50,0.0475
2867.00,0.0474
2866.50,0.0472
2866.00,0.0471
2865.50,0.0470
2865.00,0.0469
2864.50,0.0468
2864.00,0.0467
2863.50,0.0466
2863.00,0.0466
2862.50,0.0465
2862.00,0.0465
2861.50,0.0464
2861.00,0.0464
2860.50,0.0464
2860.00,0.0464
2859.50,0.0464
2859.00,0.0464
2858.50,0.0464
2858.00,0.0464
2857.50,0.0464
2857.00,0.0465
2856.50,0.0465
2856.00,0.0465
2855.50,0.0466
2855.00,0.0466
2854.50,0.0466
2854.00,0.0466
2853.50,0.0466
2853.00,0.0466
2852.50,0.0466
2852.00,0.0466
2851.50,0.0465
2851.00,0.0464
2850.50,0.0464
2850.00,0.0463
2849.50,0.0461
2849.00,0.0460
2848.50,0.0459
2848.00,0.0457
2847.50,0.0456
2847.00,0.0454
2846.50,0.0453
2846.00,0.0452
2845.50,0.0451
2845.00,0.0450
2844.50,0.0448
2844.00,0.0447
2843.50,0.0447
2843.00,0.0446
2842.50,0.0445
2842.00,0.0444
2841.50,0.0443
2841.00,0.0442
2840.50,0.0442
2840.00,0.0441
2839.50,0.0440
2839.00,0.0440
2838.50,0.0439
2838.00,0.0438
2837.50,0.0438
2837.00,0.0437
2836.50,0.0436
2836.00,0.0435
2835.50,0.0435
2835.00,0.0434
2834.50,0.0433
2834.00,0.0433
2833.50,0.0432
2833.00,0.0432
2832.50,0.0431
2832.00,0.0431
2831.50,0.0430
2831.00,0.0430
2830.50,0.0429
2830.00,0.0429
2829.50,0.0428
2829.00,0.0428
2828.50,0.0427
2828.00,0.0427
2827.50,0.0427
2827.00,0.0427
2826.50,0.0426
2826.00,0.0426
2825.50,0.0426
2825.00,0.0426
2824.50,0.0426
2824.00,0.0426
2823.50,0.0426
2823.00,0.0426
2822.50,0.0426
2822.00,0.0426
2821.50,0.0426
2821.00,0.0426
2820.50,0.0426
2820.00,0.0426
2819.50,0.0427
2819.00,0.0427
2818.50,0.0427
2818.00,0.0427
2817.50,0.0427
2817.00,0.0428
2816.50,0.0428
2816.00,0.0428
2815.50,0.0428
2815.00,0.0428
2814.50,0.0428
2814.00,0.0428
2813.50,0.0428
2813.00,0.0429
2812.50,0.0429
2812.00,0.0429
2811.50,0.0429
2811.00,0.0429
2810.50,0.0429
2810.00,0.0429
2809.50,0.0429
2809.00,0.0429
2808.50,0.0429
2808.00,0.0429
2807.50,0.0428
2807.00,0.0428
2806.50,0.0428
2806.00,0.0428
2805.50,0.0428
2805.00,0.0428
2804.50,0.0428
2804.00,0.0428
2803.50,0.0427
2803.00,0.0427
2802.50,0.0427
2802.00,0.0427
2801.50,0.0427
2801.00,0.0427
2800.50,0.0426
2800.00,0.0426
2799.50,0.0426
2799.00,0.0426
2798.50,0.0425
2798.00,0.0425
2797.50,0.0425
2797.00,0.0424
2796.50,0.0424
2796.00,0.0423
2795.50,0.0423
2795.00,0.0422
2794.50,0.0421
2794.00,0.0420
2793.50,0.0420
2793.00,0.0419
2792.50,0.0418
2792.00,0.0417
2791.50,0.0415
2791.00,0.0414
2790.50,0.0413
2790.00,0.0411
2789.50,0.0410
2789.00,0.0408
2788.50,0.0407
2788.00,0.0405
2787.50,0.0403
2787.00,0.0401
2786.50,0.0399
2786.00,0.0398
2785.50,0.0396
2785.00,0.0394
2784.50,0.0392
2784.00,0.0391
2783.50,0.0389
2783.00,0.0387
2782.50,0.0386
2782.00,0.0384
2781.50,0.0382
2781.00,0.0381
2780.50,0.0379
2780.00,0.0378
2779.50,0.0376
2779.00,0.0375
2778.50,0.0374
2778.00,0.0372
2777.50,0.0371
2777.00,0.0370
2776.50,0.0369
2776.00,0.0368
2775.50,0.0367
2775.00,0.0366
2774.50,0.0365
2774.00,0.0364
2773.50,0.0363
2773.00,0.0362
2772.50,0.0361
2772.00,0.0360
2771.50,0.0359
2771.00,0.0358
2770.50,0.0358
2770.00,0.0357
2769.50,0.0356
2769.00,0.0355
2768.50,0.0355
2768.00,0.0354
2767.50,0.0353
2767.00,0.0353
2766.50,0.0352
2766.00,0.0352
2765.50,0.0351
2765.00,0.0351
2764.50,0.0350
2764.00,0.0349
2763.50,0.0349
2763.00,0.0348
2762.50,0.0348
2762.00,0.0348
2761.50,0.0347
2761.00,0.0347
2760.50,0.0346
2760.00,0.0346
2759.50,0.0345
2759.00,0.0345
2758.50,0.0345
2758.00,0.0344
2757.50,0.0344
2757.00,0.0344
2756.50,0.0343
2756.00,0.0343
2755.50,0.0343
2755.00,0.0342
2754.50,0.0342
2754.00,0.0342
2753.50,0.0341
2753.00,0.0341
2752.50,0.0341
2752.00,0.0341
2751.50,0.0340
2751.00,0.0340
2750.50,0.0340
2750.00,0.0340
2749.50,0.0340
2749.00,0.0339
2748.50,0.0339
2748.00,0.0339
2747.50,0.0339
2747.00,0.0338
2746.50,0.0338
2746.00,0.0338
2745.50,0.0338
2745.00,0.0338
2744.50,0.0337
2744.00,0.0337
2743.50,0.0337
2743.00,0.0337
2742.50,0.0337
2742.00,0.0336
2741.50,0.0336
2741.00,0.0336
2740.50,0.0336
2740.00,0.0336
2739.50,0.0336
2739.00,0.0335
2738.50,0.0335
2738.00,0.0335
2737.50,0.0335
2737.00,0.0335
2736.50,0.0335
2736.00,0.0335
2735.50,0.0334
2735.00,0.0334
2734.50,0.0334
2734.00,0.0334
2733.50,0.0334
2733.00,0.0334
2732.50,0.0334
2732.00,0.0334
2731.50,0.0333
2731.00,0.0333
2730.50,0.0333
2730.00,0.0333
2729.50,0.0333
2729.00,0.0333
2728.50,0.0333
2728.00,0.0333
2727.50,0.0332
2727.00,0.0332
2726.50,0.0332
2726.00,0.0332
2725.50,0.0332
2725.00,0.0332
2724.50,0.0332
2724.00,0.0332
2723.50,0.0332
2723.00,0.0332
2722.50,0.0332
2722.00,0.0332
2721.50,0.0331
2721.00,0.0331
2720.50,0.0331
2720.00,0.0331
2719.50,0.0331
2719.00,0.0332
2718.50,0.0332
2718.00,0.0332
2717.50,0.0331
2717.00,0.0331
2716.50,0.0331
2716.00,0.0331
2715.50,0.0331
2715.00,0.0332
2714.50,0.0332
2714.00,0.0331
2713.50,0.0331
2713.00,0.0331
2712.50,0.0331
2712.00,0.0331
2711.50,0.0331
2711.00,0.0332
2710.50,0.0332
2710.00,0.0332
2709.50,0.0332
2709.00,0.0332
2708.50,0.0331
2708.00,0.0331
2707.50,0.0331
2707.00,0.0331
2706.50,0.0331
2706.00,0.0331
2705.50,0.0331
2705.00,0.0331
2704.50,0.0331
2704.00,0.0331
2703.50,0.0331
2703.00,0.0331
2702.50,0.0331
2702.00,0.0331
2701.50,0.0331
2701.00,0.0331
2700.50,0.0330
2700.00,0.0330
2699.50,0.0330
2699.00,0.0330
2698.50,0.0330
2698.00,0.0330
2697.50,0.0330
2697.00,0.0330
2696.50,0.0330
2696.00,0.0330
2695.50,0.0330
2695.00,0.0330
2694.50,0.0330
2694.00,0.0329
2693.50,0.0329
2693.00,0.0329
2692.50,0.0329
2692.00,0.0329
2691.50,0.0329
2691.00,0.0329
2690.50,0.0329
2690.00,0.0329
2689.50,0.0330
2689.00,0.0330
2688.50,0.0330
2688.00,0.0330
2687.50,0.0330
2687.00,0.0330
2686.50,0.0330
2686.00,0.0330
2685.50,0.0330
2685.00,0.0330
2684.50,0.0330
2684.00,0.0330
2683.50,0.0330
2683.00,0.0331
2682.50,0.0331
2682.00,0.0331
2681.50,0.0331
2681.00,0.0331
2680.50,0.0331
2680.00,0.0332
2679.50,0.0332
2679.00,0.0332
2678.50,0.0332
2678.00,0.0332
2677.50,0.0333
2677.00,0.0333
2676.50,0.0333
2676.00,0.0333
2675.50,0.0333
2675.00,0.0334
2674.50,0.0334
2674.00,0.0334
2673.50,0.0334
2673.00,0.0335
2672.50,0.0335
2672.00,0.0335
2671.50,0.0335
2671.00,0.0336
2670.50,0.0336
2670.00,0.0336
2669.50,0.0336
2669.00,0.0337
2668.50,0.0337
2668.00,0.0337
2667.50,0.0337
2667.00,0.0337
2666.50,0.0338
2666.00,0.0338
2665.50,0.0338
2665.00,0.0338
2664.50,0.0338
2664.00,0.0338
2663.50,0.0338
2663.00,0.0338
2662.50,0.0338
2662.00,0.0338
2661.50,0.0338
2661.00,0.0338
2660.50,0.0338
2660.00,0.0338
2659.50,0.0338
2659.00,0.0338
2658.50,0.0337
2658.00,0.0337
2657.50,0.0337
2657.00,0.0337
2656.50,0.0337
2656.00,0.0336
2655.50,0.0336
2655.00,0.0335
2654.50,0.0335
2654.00,0.0335
2653.50,0.0335
2653.00,0.0334
2652.50,0.0334
2652.00,0.0333
2651.50,0.0333
2651.00,0.0332
2650.50,0.0332
2650.00,0.0332
2649.50,0.0331
2649.00,0.0331
2648.50,0.0330
2648.00,0.0330
2647.50,0.0330
2647.00,0.0329
2646.50,0.0329
2646.00,0.0328
2645.50,0.0328
2645.00,0.0328
2644.50,0.0327
2644.00,0.0327
2643.50,0.0327
2643.00,0.0326
2642.50,0.0326
2642.00,0.0326
2641.50,0.0325
2641.00,0.0325
2640.50,0.0325
2640.00,0.0324
2639.50,0.0324
2639.00,0.0324
2638.50,0.0324
2638.00,0.0323
2637.50,0.0323
2637.00,0.0323
2636.50,0.0323
2636.00,0.0322
2635.50,0.0322
2635.00,0.0322
2634.50,0.0322
2634.00,0.0322
2633.50,0.0322
2633.00,0.0321
2632.50,0.0321
2632.00,0.0321
2631.50,0.0321
2631.00,0.0321
2630.50,0.0320
2630.00,0.0320
2629.50,0.0320
2629.00,0.0320
2628.50,0.0320
2628.00,0.0320
2627.50,0.0320
2627.00,0.0320
2626.50,0.0319
2626.00,0.0319
2625.50,0.0319
2625.00,0.0319
2624.50,0.0319
2624.00,0.0319
2623.50,0.0319
2623.00,0.0319
2622.50,0.0319
2622.00,0.0319
2621.50,0.0319
2621.00,0.0319
2620.50,0.0319
2620.00,0.0318
2619.50,0.0318
2619.00,0.0318
2618.50,0.0318
2618.00,0.0318
2617.50,0.0318
2617.00,0.0318
2616.50,0.0318
2616.00,0.0318
2615.50,0.0318
2615.00,0.0318
2614.50,0.0317
2614.00,0.0317
2613.50,0.0317
2613.00,0.0317
2612.50,0.0317
2612.00,0.0317
2611.50,0.0317
2611.00,0.0317
2610.50,0.0317
2610.00,0.0317
2609.50,0.0317
2609.00,0.0317
2608.50,0.0316
2608.00,0.0316
2607.50,0.0316
2607.00,0.0316
2606.50,0.0316
2606.00,0.0316
2605.50,0.0316
2605.00,0.0316
2604.50,0.0316
2604.00,0.0316
2603.50,0.0316
2603.00,0.0316
2602.50,0.0316
2602.00,0.0316
2601.50,0.0316
2601.00,0.0316
2600.50,0.0316
2600.00,0.0316
2599.50,0.0316
2599.00,0.0315
2598.50,0.0315
2598.00,0.0315
2597.50,0.0315
2597.00,0.0315
2596.50,0.0315
2596.00,0.0315
2595.50,0.0315
2595.00,0.0315
2594.50,0.0315
2594.00,0.0315
2593.50,0.0315
2593.00,0.0315
2592.50,0.0315
2592.00,0.0315
2591.50,0.0315
2591.00,0.0315
2590.50,0.0315
2590.00,0.0315
2589.50,0.0315
2589.00,0.0315
2588.50,0.0315
2588.00,0.0315
2587.50,0.0315
2587.00,0.0315
2586.50,0.0315
2586.00,0.0315
2585.50,0.0315
2585.00,0.0315
2584.50,0.0315
2584.00,0.0315
2583.50,0.0315
2583.00,0.0314
2582.50,0.0314
2582.00,0.0314
2581.50,0.0314
2581.00,0.0314
2580.50,0.0314
2580.00,0.0314
2579.50,0.0314
2579.00,0.0314
2578.50,0.0314
2578.00,0.0314
2577.50,0.0314
2577.00,0.0314
2576.50,0.0314
2576.00,0.0314
2575.50,0.0314
2575.00,0.0314
2574.50,0.0314
2574.00,0.0314
2573.50,0.0314
2573.00,0.0314
2572.50,0.0314
2572.00,0.0314
2571.50,0.0314
2571.00,0.0314
2570.50,0.0314
2570.00,0.0314
2569.50,0.0314
2569.00,0.0314
2568.50,0.0314
2568.00,0.0314
2567.50,0.0314
2567.00,0.0314
2566.50,0.0314
2566.00,0.0314
2565.50,0.0314
2565.00,0.0314
2564.50,0.0314
2564.00,0.0314
2563.50,0.0314
2563.00,0.0313
2562.50,0.0313
2562.00,0.0313
2561.50,0.0313
2561.00,0.0313
2560.50,0.0313
2560.00,0.0313
2559.50,0.0313
2559.00,0.0313
2558.50,0.0313
2558.00,0.0313
2557.50,0.0313
2557.00,0.0313
2556.50,0.0313
2556.00,0.0313
2555.50,0.0313
2555.00,0.0313
2554.50,0.0313
2554.00,0.0313
2553.50,0.0313
2553.00,0.0313
2552.50,0.0313
2552.00,0.0313
2551.50,0.0313
2551.00,0.0313
2550.50,0.0313
2550.00,0.0312
2549.50,0.0312
2549.00,0.0312
2548.50,0.0312
2548.00,0.0312
2547.50,0.0312
2547.00,0.0312
2546.50,0.0312
2546.00,0.0312
2545.50,0.0312
2545.00,0.0312
2544.50,0.0312
2544.00,0.0312
2543.50,0.0312
2543.00,0.0312
2542.50,0.0312
2542.00,0.0312
2541.50,0.0312
2541.00,0.0312
2540.50,0.0312
2540.00,0.0312
2539.50,0.0312
2539.00,0.0312
2538.50,0.0312
2538.00,0.0312
2537.50,0.0312
2537.00,0.0312
2536.50,0.0312
2536.00,0.0312
2535.50,0.0312
2535.00,0.0312
2534.50,0.0312
2534.00,0.0312
2533.50,0.0312
2533.00,0.0312
2532.50,0.0312
2532.00,0.0312
2531.50,0.0312
2531.00,0.0312
2530.50,0.0312
2530.00,0.0312
2529.50,0.0312
2529.00,0.0312
2528.50,0.0312
2528.00,0.0312
2527.50,0.0312
2527.00,0.0312
2526.50,0.0312
2526.00,0.0312
2525.50,0.0312
2525.00,0.0312
2524.50,0.0312
2524.00,0.0312
2523.50,0.0312
2523.00,0.0312
2522.50,0.0312
2522.00,0.0312
2521.50,0.0313
2521.00,0.0313
2520.50,0.0313
2520.00,0.0313
2519.50,0.0313
2519.00,0.0313
2518.50,0.0313
2518.00,0.0314
2517.50,0.0314
2517.00,0.0314
2516.50,0.0314
2516.00,0.0314
2515.50,0.0314
2515.00,0.0315
2514.50,0.0315
2514.00,0.0315
2513.50,0.0316
2513.00,0.0316
2512.50,0.0316
2512.00,0.0317
2511.50,0.0317
2511.00,0.0318
2510.50,0.0318
2510.00,0.0319
2509.50,0.0319
2509.00,0.0320
2508.50,0.0321
2508.00,0.0321
2507.50,0.0322
2507.00,0.0323
2506.50,0.0324
2506.00,0.0325
2505.50,0.0326
2505.00,0.0327
2504.50,0.0328
2504.00,0.0329
2503.50,0.0330
2503.00,0.0331
2502.50,0.0332
2502.00,0.0332
2501.50,0.0333
2501.00,0.0334
2500.50,0.0334
2500.00,0.0334
2499.50,0.0334
2499.00,0.0334
2498.50,0.0334
2498.00,0.0333
2497.50,0.0333
2497.00,0.0332
2496.50,0.0332
2496.00,0.0331
2495.50,0.0331
2495.00,0.0330
2494.50,0.0329
2494.00,0.0329
2493.50,0.0328
2493.00,0.0327
2492.50,0.0327
2492.00,0.0326
2491.50,0.0325
2491.00,0.0325
2490.50,0.0324
2490.00,0.0324
2489.50,0.0323
2489.00,0.0322
2488.50,0.0322
2488.00,0.0321
2487.50,0.0321
2487.00,0.0321
2486.50,0.0320
2486.00,0.0320
2485.50,0.0319
2485.00,0.0319
2484.50,0.0319
2484.00,0.0318
2483.50,0.0318
2483.00,0.0318
2482.50,0.0318
2482.00,0.0317
2481.50,0.0317
2481.00,0.0317
2480.50,0.0317
2480.00,0.0317
2479.50,0.0316
2479.00,0.0316
2478.50,0.0316
2478.00,0.0316
2477.50,0.0316
2477.00,0.0315
2476.50,0.0315
2476.00,0.0315
2475.50,0.0315
2475.00,0.0315
2474.50,0.0315
2474.00,0.0315
2473.50,0.0315
2473.00,0.0315
2472.50,0.0315
2472.00,0.0314
2471.50,0.0314
2471.00,0.0314
2470.50,0.0314
2470.00,0.0314
2469.50,0.0314
2469.00,0.0314
2468.50,0.0314
2468.00,0.0314
2467.50,0.0314
2467.00,0.0314
2466.50,0.0314
2466.00,0.0314
2465.50,0.0313
2465.00,0.0313
2464.50,0.0313
2464.00,0.0313
2463.50,0.0313
2463.00,0.0313
2462.50,0.0313
2462.00,0.0313
2461.50,0.0313
2461.00,0.0313
2460.50,0.0313
2460.00,0.0313
2459.50,0.0313
2459.00,0.0313
2458.50,0.0313
2458.00,0.0313
2457.50,0.0313
2457.00,0.0313
2456.50,0.0313
2456.00,0.0313
2455.50,0.0313
2455.00,0.0313
2454.50,0.0312
2454.00,0.0312
2453.50,0.0312
2453.00,0.0312
2452.50,0.0312
2452.00,0.0312
2451.50,0.0312
2451.00,0.0312
2450.50,0.0312
2450.00,0.0312
2449.50,0.0312
2449.00,0.0312
2448.50,0.0312
2448.00,0.0312
2447.50,0.0312
2447.00,0.0312
2446.50,0.0312
2446.00,0.0312
2445.50,0.0312
2445.00,0.0312
2444.50,0.0312
2444.00,0.0312
2443.50,0.0312
2443.00,0.0312
2442.50,0.0312
2442.00,0.0312
2441.50,0.0312
2441.00,0.0312
2440.50,0.0312
2440.00,0.0312
2439.50,0.0312
2439.00,0.0312
2438.50,0.0312
2438.00,0.0312
2437.50,0.0312
2437.00,0.0312
2436.50,0.0312
2436.00,0.0312
2435.50,0.0312
2435.00,0.0312
2434.50,0.0311
2434.00,0.0311
2433.50,0.0311
2433.00,0.0311
2432.50,0.0312
2432.00,0.0312
2431.50,0.0312
2431.00,0.0312
2430.50,0.0312
2430.00,0.0312
2429.50,0.0312
2429.00,0.0312
2428.50,0.0311
2428.00,0.0311
2427.50,0.0311
2427.00,0.0311
2426.50,0.0311
2426.00,0.0311
2425.50,0.0311
2425.00,0.0311
2424.50,0.0311
2424.00,0.0311
2423.50,0.0311
2423.00,0.0311
2422.50,0.0311
2422.00,0.0311
2421.50,0.0311
2421.00,0.0311
2420.50,0.0311
2420.00,0.0311
2419.50,0.0311
2419.00,0.0311
2418.50,0.0311
2418.00,0.0311
2417.50,0.0311
2417.00,0.0311
2416.50,0.0311
2416.00,0.0311
2415.50,0.0311
2415.00,0.0311
2414.50,0.0311
2414.00,0.0311
2413.50,0.0311
2413.00,0.0311
2412.50,0.0311
2412.00,0.0311
2411.50,0.0311
2411.00,0.0311
2410.50,0.0311
2410.00,0.0311
2409.50,0.0311
2409.00,0.0311
2408.50,0.0311
2408.00,0.0311
2407.50,0.0311
2407.00,0.0311
2406.50,0.0311
2406.00,0.0311
2405.50,0.0311
2405.00,0.0311
2404.50,0.0311
2404.00,0.0311
2403.50,0.0311
2403.00,0.0311
2402.50,0.0311
2402.00,0.0311
2401.50,0.0311
2401.00,0.0311
2400.50,0.0311
2400.00,0.0311
2399.50,0.0311
2399.00,0.0311
2398.50,0.0311
2398.00,0.0311
2397.50,0.0311
2397.00,0.0311
2396.50,0.0311
2396.00,0.0311
2395.50,0.0311
2395.00,0.0311
2394.50,0.0311
2394.00,0.0311
2393.50,0.0311
2393.00,0.0311
2392.50,0.0311
2392.00,0.0311
2391.50,0.0311
2391.00,0.0311
2390.50,0.0311
2390.00,0.0311
2389.50,0.0311
2389.00,0.0311
2388.50,0.0311
2388.00,0.0311
2387.50,0.0311
2387.00,0.0311
2386.50,0.0311
2386.00,0.0311
2385.50,0.0311
2385.00,0.0311
2384.50,0.0311
2384.00,0.0311
2383.50,0.0311
2383.00,0.0311
2382.50,0.0311
2382.00,0.0311
2381.50,0.0311
2381.00,0.0311
2380.50,0.0311
2380.00,0.0312
2379.50,0.0312
2379.00,0.0312
2378.50,0.0312
2378.00,0.0312
2377.50,0.0312
2377.00,0.0312
2376.50,0.0312
2376.00,0.0312
2375.50,0.0312
2375.00,0.0312
2374.50,0.0313
2374.00,0.0313
2373.50,0.0313
2373.00,0.0313
2372.50,0.0313
2372.00,0.0313
2371.50,0.0313
2371.00,0.0314
2370.50,0.0314
2370.00,0.0314
2369.50,0.0314
2369.00,0.0314
2368.50,0.0314
2368.00,0.0314
2367.50,0.0314
2367.00,0.0314
2366.50,0.0314
2366.00,0.0314
2365.50,0.0314
2365.00,0.0314
2364.50,0.0314
2364.00,0.0314
2363.50,0.0314
2363.00,0.0314
2362.50,0.0314
2362.00,0.0314
2361.50,0.0314
2361.00,0.0314
2360.50,0.0314
2360.00,0.0314
2359.50,0.0314
2359.00,0.0314
2358.50,0.0314
2358.00,0.0314
2357.50,0.0314
2357.00,0.0315
2356.50,0.0315
2356.00,0.0314
2355.50,0.0314
2355.00,0.0314
2354.50,0.0314
2354.00,0.0314
2353.50,0.0314
2353.00,0.0314
2352.50,0.0314
2352.00,0.0314
2351.50,0.0314
2351.00,0.0314
2350.50,0.0314
2350.00,0.0314
2349.50,0.0313
2349.00,0.0314
2348.50,0.0314
2348.00,0.0313
2347.50,0.0313
2347.00,0.0313
2346.50,0.0313
2346.00,0.0313
2345.50,0.0313
2345.00,0.0313
2344.50,0.0312
2344.00,0.0312
2343.50,0.0311
2343.00,0.0312
2342.50,0.0312
2342.00,0.0312
2341.50,0.0312
2341.00,0.0312
2340.50,0.0313
2340.00,0.0312
2339.50,0.0312
2339.00,0.0312
2338.50,0.0313
2338.00,0.0312
2337.50,0.0312
2337.00,0.0312
2336.50,0.0313
2336.00,0.0312
2335.50,0.0312
2335.00,0.0312
2334.50,0.0313
2334.00,0.0312
2333.50,0.0312
2333.00,0.0312
2332.50,0.0313
2332.00,0.0312
2331.50,0.0312
2331.00,0.0313
2330.50,0.0313
2330.00,0.0312
2329.50,0.0312
2329.00,0.0313
2328.50,0.0313
2328.00,0.0312
2327.50,0.0312
2327.00,0.0313
2326.50,0.0313
2326.00,0.0312
2325.50,0.0312
2325.00,0.0313
2324.50,0.0313
2324.00,0.0312
2323.50,0.0312
2323.00,0.0313
2322.50,0.0313
2322.00,0.0312
2321.50,0.0312
2321.00,0.0313
2320.50,0.0312
2320.00,0.0312
2319.50,0.0312
2319.00,0.0312
2318.50,0.0312
2318.00,0.0312
2317.50,0.0312
2317.00,0.0312
2316.50,0.0312
2316.00,0.0312
2315.50,0.0313
2315.00,0.0312
2314.50,0.0312
2314.00,0.0312
2313.50,0.0312
2313.00,0.0312
2312.50,0.0312
2312.00,0.0313
2311.50,0.0313
2311.00,0.0312
2310.50,0.0312
2310.00,0.0313
2309.50,0.0313
2309.00,0.0312
2308.50,0.0312
2308.00,0.0313
2307.50,0.0313
2307.00,0.0312
2306.50,0.0312
2306.00,0.0313
2305.50,0.0313
2305.00,0.0312
2304.50,0.0312
2304.00,0.0313
2303.50,0.0313
2303.00,0.0312
2302.50,0.0312
2302.00,0.0313
2301.50,0.0313
2301.00,0.0313
2300.50,0.0312
2300.00,0.0313
2299.50,0.0313
2299.00,0.0312
2298.50,0.0312
2298.00,0.0312
2297.50,0.0313
2297.00,0.0312
2296.50,0.0312
2296.00,0.0312
2295.50,0.0313
2295.00,0.0312
2294.50,0.0312
2294.00,0.0313
2293.50,0.0313
2293.00,0.0313
2292.50,0.0312
2292.00,0.0313
2291.50,0.0313
2291.00,0.0313
2290.50,0.0313
2290.00,0.0313
2289.50,0.0313
2289.00,0.0313
2288.50,0.0313
2288.00,0.0313
2287.50,0.0313
2287.00,0.0313
2286.50,0.0313
2286.00,0.0313
2285.50,0.0313
2285.00,0.0313
2284.50,0.0313
2284.00,0.0313
2283.50,0.0313
2283.00,0.0313
2282.50,0.0313
2282.00,0.0313
2281.50,0.0314
2281.00,0.0314
2280.50,0.0314
2280.00,0.0314
2279.50,0.0314
2279.00,0.0314
2278.50,0.0314
2278.00,0.0314
2277.50,0.0314
2277.00,0.0314
2276.50,0.0314
2276.00,0.0314
2275.50,0.0314
2275.00,0.0314
2274.50,0.0314
2274.00,0.0314
2273.50,0.0314
2273.00,0.0314
2272.50,0.0314
2272.00,0.0314
2271.50,0.0314
2271.00,0.0314
2270.50,0.0314
2270.00,0.0314
2269.50,0.0314
2269.00,0.0314
2268.50,0.0314
2268.00,0.0314
2267.50,0.0314
2267.00,0.0314
2266.50,0.0314
2266.00,0.0314
2265.50,0.0314
2265.00,0.0314
2264.50,0.0314
2264.00,0.0314
2263.50,0.0314
2263.00,0.0314
2262.50,0.0314
2262.00,0.0314
2261.50,0.0314
2261.00,0.0314
2260.50,0.0314
2260.00,0.0314
2259.50,0.0314
2259.00,0.0314
2258.50,0.0314
2258.00,0.0314
2257.50,0.0314
2257.00,0.0314
2256.50,0.0314
2256.00,0.0314
2255.50,0.0314
2255.00,0.0314
2254.50,0.0314
2254.00,0.0314
2253.50,0.0314
2253.00,0.0314
2252.50,0.0314
2252.00,0.0314
2251.50,0.0314
2251.00,0.0314
2250.50,0.0314
2250.00,0.0314
2249.50,0.0314
2249.00,0.0314
2248.50,0.0314
2248.00,0.0314
2247.50,0.0314
2247.00,0.0314
2246.50,0.0314
2246.00,0.0314
2245.50,0.0314
2245.00,0.0314
2244.50,0.0314
2244.00,0.0314
2243.50,0.0314
2243.00,0.0314
2242.50,0.0314
2242.00,0.0314
2241.50,0.0314
2241.00,0.0314
2240.50,0.0314
2240.00,0.0315
2239.50,0.0315
2239.00,0.0315
2238.50,0.0315
2238.00,0.0315
2237.50,0.0315
2237.00,0.0315
2236.50,0.0315
2236.00,0.0315
2235.50,0.0315
2235.00,0.0315
2234.50,0.0315
2234.00,0.0315
2233.50,0.0315
2233.00,0.0315
2232.50,0.0315
2232.00,0.0315
2231.50,0.0316
2231.00,0.0316
2230.50,0.0316
2230.00,0.0316
2229.50,0.0316
2229.00,0.0316
2228.50,0.0316
2228.00,0.0316
2227.50,0.0316
2227.00,0.0316
2226.50,0.0317
2226.00,0.0317
2225.50,0.0317
2225.00,0.0317
2224.50,0.0317
2224.00,0.0317
2223.50,0.0317
2223.00,0.0318
2222.50,0.0318
2222.00,0.0318
2221.50,0.0318
2221.00,0.0318
2220.50,0.0318
2220.00,0.0318
2219.50,0.0318
2219.00,0.0318
2218.50,0.0318
2218.00,0.0319
2217.50,0.0319
2217.00,0.0319
2216.50,0.0319
2216.00,0.0319
2215.50,0.0319
2215.00,0.0319
2214.50,0.0319
2214.00,0.0320
2213.50,0.0320
2213.00,0.0320
2212.50,0.0320
2212.00,0.0320
2211.50,0.0320
2211.00,0.0320
2210.50,0.0321
2210.00,0.0321
2209.50,0.0321
2209.00,0.0321
2208.50,0.0321
2208.00,0.0321
2207.50,0.0322
2207.00,0.0322
2206.50,0.0322
2206.00,0.0322
2205.50,0.0323
2205.00,0.0323
2204.50,0.0323
2204.00,0.0323
2203.50,0.0324
2203.00,0.0324
2202.50,0.0324
2202.00,0.0324
2201.50,0.0325
2201.00,0.0325
2200.50,0.0325
2200.00,0.0326
2199.50,0.0326
2199.00,0.0327
2198.50,0.0327
2198.00,0.0327
2197.50,0.0328
2197.00,0.0328
2196.50,0.0328
2196.00,0.0329
2195.50,0.0329
2195.00,0.0330
2194.50,0.0330
2194.00,0.0331
2193.50,0.0331
2193.00,0.0332
2192.50,0.0332
2192.00,0.0333
2191.50,0.0334
2191.00,0.0334
2190.50,0.0335
2190.00,0.0336
2189.50,0.0336
2189.00,0.0337
2188.50,0.0337
2188.00,0.0338
2187.50,0.0339
2187.00,0.0340
2186.50,0.0341
2186.00,0.0342
2185.50,0.0343
2185.00,0.0343
2184.50,0.0344
2184.00,0.0345
2183.50,0.0346
2183.00,0.0347
2182.50,0.0349
2182.00,0.0350
2181.50,0.0351
2181.00,0.0352
2180.50,0.0353
2180.00,0.0354
2179.50,0.0356
2179.00,0.0357
2178.50,0.0358
2178.00,0.0360
2177.50,0.0361
2177.00,0.0362
2176.50,0.0364
2176.00,0.0365
2175.50,0.0367
2175.00,0.0368
2174.50,0.0369
2174.00,0.0371
2173.50,0.0372
2173.00,0.0374
2172.50,0.0375
2172.00,0.0377
2171.50,0.0378
2171.00,0.0379
2170.50,0.0381
2170.00,0.0382
2169.50,0.0384
2169.00,0.0385
2168.50,0.0387
2168.00,0.0388
2167.50,0.0389
2167.00,0.0391
2166.50,0.0392
2166.00,0.0393
2165.50,0.0394
2165.00,0.0396
2164.50,0.0397
2164.00,0.0398
2163.50,0.0399
2163.00,0.0400
2162.50,0.0401
2162.00,0.0401
2161.50,0.0402
2161.00,0.0403
2160.50,0.0403
2160.00,0.0404
2159.50,0.0404
2159.00,0.0404
2158.50,0.0405
2158.00,0.0405
2157.50,0.0405
2157.00,0.0405
2156.50,0.0405
2156.00,0.0405
2155.50,0.0405
2155.00,0.0404
2154.50,0.0404
2154.00,0.0403
2153.50,0.0403
2153.00,0.0402
2152.50,0.0401
2152.00,0.0400
2151.50,0.0399
2151.00,0.0398
2150.50,0.0397
2150.00,0.0397
2149.50,0.0395
2149.00,0.0394
2148.50,0.0393
2148.00,0.0392
2147.50,0.0390
2147.00,0.0389
2146.50,0.0388
2146.00,0.0387
2145.50,0.0385
2145.00,0.0384
2144.50,0.0382
2144.00,0.0381
2143.50,0.0379
2143.00,0.0378
2142.50,0.0377
2142.00,0.0375
2141.50,0.0374
2141.00,0.0373
2140.50,0.0371
2140.00,0.0370
2139.50,0.0369
2139.00,0.0367
2138.50,0.0366
2138.00,0.0365
2137.50,0.0364
2137.00,0.0362
2136.50,0.0361
2136.00,0.0360
2135.50,0.0359
2135.00,0.0358
2134.50,0.0357
2134.00,0.0356
2133.50,0.0355
2133.00,0.0354
2132.50,0.0353
2132.00,0.0352
2131.50,0.0351
2131.00,0.0350
2130.50,0.0349
2130.00,0.0349
2129.50,0.0348
2129.00,0.0347
2128.50,0.0347
2128.00,0.0346
2127.50,0.0345
2127.00,0.0345
2126.50,0.0344
2126.00,0.0344
2125.50,0.0343
2125.00,0.0343
2124.50,0.0342
2124.00,0.0342
2123.50,0.0342
2123.00,0.0341
2122.50,0.0341
2122.00,0.0340
2121.50,0.0340
2121.00,0.0340
2120.50,0.0339
2120.00,0.0339
2119.50,0.0339
2119.00,0.0339
2118.50,0.0338
2118.00,0.0338
2117.50,0.0338
2117.00,0.0338
2116.50,0.0337
2116.00,0.0337
2115.50,0.0337
2115.00,0.0337
2114.50,0.0336
2114.00,0.0336
2113.50,0.0336
2113.00,0.0336
2112.50,0.0336
2112.00,0.0336
2111.50,0.0336
2111.00,0.0336
2110.50,0.0336
2110.00,0.0336
2109.50,0.0335
2109.00,0.0335
2108.50,0.0335
2108.00,0.0335
2107.50,0.0335
2107.00,0.0335
2106.50,0.0335
2106.00,0.0335
2105.50,0.0335
2105.00,0.0335
2104.50,0.0335
2104.00,0.0334
2103.50,0.0334
2103.00,0.0334
2102.50,0.0334
2102.00,0.0334
2101.50,0.0334
2101.00,0.0334
2100.50,0.0334
2100.00,0.0334
2099.50,0.0334
2099.00,0.0334
2098.50,0.0333
2098.00,0.0333
2097.50,0.0333
2097.00,0.0333
2096.50,0.0333
2096.00,0.0333
2095.50,0.0333
2095.00,0.0333
2094.50,0.0333
2094.00,0.0333
2093.50,0.0333
2093.00,0.0333
2092.50,0.0333
2092.00,0.0333
2091.50,0.0333
2091.00,0.0333
2090.50,0.0333
2090.00,0.0333
2089.50,0.0333
2089.00,0.0333
2088.50,0.0333
2088.00,0.0333
2087.50,0.0333
2087.00,0.0333
2086.50,0.0333
2086.00,0.0333
2085.50,0.0333
2085.00,0.0333
2084.50,0.0333
2084.00,0.0333
2083.50,0.0333
2083.00,0.0334
2082.50,0.0334
2082.00,0.0334
2081.50,0.0334
2081.00,0.0334
2080.50,0.0334
2080.00,0.0334
2079.50,0.0334
2079.00,0.0334
2078.50,0.0334
2078.00,0.0334
2077.50,0.0335
2077.00,0.0335
2076.50,0.0335
2076.00,0.0335
2075.50,0.0335
2075.00,0.0335
2074.50,0.0336
2074.00,0.0336
2073.50,0.0336
2073.00,0.0336
2072.50,0.0336
2072.00,0.0336
2071.50,0.0337
2071.00,0.0337
2070.50,0.0337
2070.00,0.0337
2069.50,0.0337
2069.00,0.0338
2068.50,0.0338
2068.00,0.0338
2067.50,0.0338
2067.00,0.0339
2066.50,0.0339
2066.00,0.0339
2065.50,0.0339
2065.00,0.0340
2064.50,0.0340
2064.00,0.0340
2063.50,0.0340
2063.00,0.0341
2062.50,0.0341
2062.00,0.0341
2061.50,0.0341
2061.00,0.0342
2060.50,0.0342
2060.00,0.0342
2059.50,0.0342
2059.00,0.0343
2058.50,0.0343
2058.00,0.0343
2057.50,0.0343
2057.00,0.0344
2056.50,0.0344
2056.00,0.0344
2055.50,0.0344
2055.00,0.0344
2054.50,0.0345
2054.00,0.0345
2053.50,0.0345
2053.00,0.0345
2052.50,0.0345
2052.00,0.0345
2051.50,0.0345
2051.00,0.0345
2050.50,0.0345
2050.00,0.0345
2049.50,0.0345
2049.00,0.0344
2048.50,0.0344
2048.00,0.0344
2047.50,0.0343
2047.00,0.0343
2046.50,0.0342
2046.00,0.0342
2045.50,0.0341
2045.00,0.0340
2044.50,0.0340
2044.00,0.0339
2043.50,0.0338
2043.00,0.0338
2042.50,0.0337
2042.00,0.0336
2041.50,0.0336
2041.00,0.0335
2040.50,0.0334
2040.00,0.0333
2039.50,0.0333
2039.00,0.0332
2038.50,0.0332
2038.00,0.0331
2037.50,0.0331
2037.00,0.0330
2036.50,0.0330
2036.00,0.0330
2035.50,0.0329
2035.00,0.0329
2034.50,0.0329
2034.00,0.0328
2033.50,0.0328
2033.00,0.0328
2032.50,0.0328
2032.00,0.0328
2031.50,0.0328
2031.00,0.0327
2030.50,0.0327
2030.00,0.0327
2029.50,0.0327
2029.00,0.0327
2028.50,0.0327
2028.00,0.0327
2027.50,0.0327
2027.00,0.0328
2026.50,0.0328
2026.00,0.0328
2025.50,0.0328
2025.00,0.0328
2024.50,0.0328
2024.00,0.0328
2023.50,0.0329
2023.00,0.0329
2022.50,0.0329
2022.00,0.0329
2021.50,0.0329
2021.00,0.0330
2020.50,0.0330
2020.00,0.0330
2019.50,0.0331
2019.00,0.0331
2018.50,0.0331
2018.00,0.0332
2017.50,0.0332
2017.00,0.0332
2016.50,0.0333
2016.00,0.0333
2015.50,0.0333
2015.00,0.0334
2014.50,0.0334
2014.00,0.0335
2013.50,0.0335
2013.00,0.0336
2012.50,0.0336
2012.00,0.0336
2011.50,0.0337
2011.00,0.0337
2010.50,0.0338
2010.00,0.0338
2009.50,0.0338
2009.00,0.0338
2008.50,0.0339
2008.00,0.0339
2007.50,0.0339
2007.00,0.0340
2006.50,0.0340
2006.00,0.0340
2005.50,0.0341
2005.00,0.0341
2004.50,0.0341
2004.00,0.0342
2003.50,0.0342
2003.00,0.0342
2002.50,0.0342
2002.00,0.0343
2001.50,0.0343
2001.00,0.0343
2000.50,0.0343
2000.00,0.0343
1999.50,0.0344
1999.00,0.0344
1998.50,0.0344
1998.00,0.0344
1997.50,0.0344
1997.00,0.0344
1996.50,0.0344
1996.00,0.0344
1995.50,0.0344
1995.00,0.0344
1994.50,0.0344
1994.00,0.0344
1993.50,0.0344
1993.00,0.0345
1992.50,0.0345
1992.00,0.0345
1991.50,0.0345
1991.00,0.0345
1990.50,0.0345
1990.00,0.0345
1989.50,0.0345
1989.00,0.0346
1988.50,0.0346
1988.00,0.0347
1987.50,0.0347
1987.00,0.0347
1986.50,0.0347
1986.00,0.0347
1985.50,0.0348
1985.00,0.0348
1984.50,0.0349
1984.00,0.0349
1983.50,0.0350
1983.00,0.0350
1982.50,0.0351
1982.00,0.0351
1981.50,0.0352
1981.00,0.0352
1980.50,0.0353
1980.00,0.0354
1979.50,0.0354
1979.00,0.0355
1978.50,0.0356
1978.00,0.0356
1977.50,0.0357
1977.00,0.0358
1976.50,0.0359
1976.00,0.0359
1975.50,0.0360
1975.00,0.0361
1974.50,0.0362
1974.00,0.0363
1973.50,0.0364
1973.00,0.0365
1972.50,0.0366
1972.00,0.0367
1971.50,0.0368
1971.00,0.0369
1970.50,0.0370
1970.00,0.0371
1969.50,0.0372
1969.00,0.0373
1968.50,0.0374
1968.00,0.0375
1967.50,0.0376
1967.00,0.0377
1966.50,0.0378
1966.00,0.0379
1965.50,0.0380
1965.00,0.0381
1964.50,0.0382
1964.00,0.0383
1963.50,0.0383
1963.00,0.0384
1962.50,0.0385
1962.00,0.0386
1961.50,0.0387
1961.00,0.0387
1960.50,0.0388
1960.00,0.0389
1959.50,0.0390
1959.00,0.0391
1958.50,0.0391
1958.00,0.0392
1957.50,0.0393
1957.00,0.0394
1956.50,0.0395
1956.00,0.0396
1955.50,0.0396
1955.00,0.0397
1954.50,0.0398
1954.00,0.0399
1953.50,0.0400
1953.00,0.0401
1952.50,0.0402
1952.00,0.0403
1951.50,0.0404
1951.00,0.0405
1950.50,0.0406
1950.00,0.0407
1949.50,0.0407
1949.00,0.0408
1948.50,0.0409
1948.00,0.0410
1947.50,0.0411
1947.00,0.0411
1946.50,0.0412
1946.00,0.0413
1945.50,0.0413
1945.00,0.0413
1944.50,0.0413
1944.00,0.0413
1943.50,0.0413
1943.00,0.0413
1942.50,0.0412
1942.00,0.0411
1941.50,0.0410
1941.00,0.0409
1940.50,0.0408
1940.00,0.0407
1939.50,0.0406
1939.00,0.0405
1938.50,0.0403
1938.00,0.0402
1937.50,0.0400
1937.00,0.0399
1936.50,0.0397
1936.00,0.0395
1935.50,0.0394
1935.00,0.0393
1934.50,0.0391
1934.00,0.0390
1933.50,0.0389
1933.00,0.0388
1932.50,0.0387
1932.00,0.0385
1931.50,0.0384
1931.00,0.0384
1930.50,0.0383
1930.00,0.0382
1929.50,0.0381
1929.00,0.0380
1928.50,0.0379
1928.00,0.0379
1927.50,0.0378
1927.00,0.0378
1926.50,0.0377
1926.00,0.0376
1925.50,0.0376
1925.00,0.0376
1924.50,0.0375
1924.00,0.0375
1923.50,0.0376
1923.00,0.0375
1922.50,0.0374
1922.00,0.0373
1921.50,0.0373
1921.00,0.0372
1920.50,0.0372
1920.00,0.0371
1919.50,0.0371
1919.00,0.0370
1918.50,0.0370
1918.00,0.0369
1917.50,0.0369
1917.00,0.0368
1916.50,0.0368
1916.00,0.0367
1915.50,0.0367
1915.00,0.0366
1914.50,0.0366
1914.00,0.0365
1913.50,0.0365
1913.00,0.0364
1912.50,0.0363
1912.00,0.0362
1911.50,0.0362
1911.00,0.0361
1910.50,0.0361
1910.00,0.0360
1909.50,0.0360
1909.00,0.0359
1908.50,0.0359
1908.00,0.0358
1907.50,0.0357
1907.00,0.0357
1906.50,0.0356
1906.00,0.0356
1905.50,0.0355
1905.00,0.0355
1904.50,0.0355
1904.00,0.0354
1903.50,0.0354
1903.00,0.0354
1902.50,0.0353
1902.00,0.0353
1901.50,0.0353
1901.00,0.0353
1900.50,0.0353
1900.00,0.0352
1899.50,0.0352
1899.00,0.0352
1898.50,0.0352
1898.00,0.0352
1897.50,0.0352
1897.00,0.0352
1896.50,0.0352
1896.00,0.0352
1895.50,0.0352
1895.00,0.0352
1894.50,0.0352
1894.00,0.0352
1893.50,0.0351
1893.00,0.0351
1892.50,0.0351
1892.00,0.0351
1891.50,0.0352
1891.00,0.0352
1890.50,0.0353
1890.00,0.0353
1889.50,0.0353
1889.00,0.0352
1888.50,0.0352
1888.00,0.0352
1887.50,0.0352
1887.00,0.0352
1886.50,0.0352
1886.00,0.0352
1885.50,0.0352
1885.00,0.0353
1884.50,0.0353
1884.00,0.0352
1883.50,0.0352
1883.00,0.0352
1882.50,0.0352
1882.00,0.0352
1881.50,0.0352
1881.00,0.0352
1880.50,0.0352
1880.00,0.0352
1879.50,0.0352
1879.00,0.0352
1878.50,0.0352
1878.00,0.0352
1877.50,0.0352
1877.00,0.0352
1876.50,0.0352
1876.00,0.0352
1875.50,0.0352
1875.00,0.0353
1874.50,0.0352
1874.00,0.0352
1873.50,0.0352
1873.00,0.0352
1872.50,0.0352
1872.00,0.0352
1871.50,0.0352
1871.00,0.0352
1870.50,0.0353
1870.00,0.0353
1869.50,0.0353
1869.00,0.0353
1868.50,0.0354
1868.00,0.0354
1867.50,0.0354
1867.00,0.0353
1866.50,0.0353
1866.00,0.0353
1865.50,0.0353
1865.00,0.0353
1864.50,0.0353
1864.00,0.0353
1863.50,0.0353
1863.00,0.0353
1862.50,0.0353
1862.00,0.0353
1861.50,0.0353
1861.00,0.0352
1860.50,0.0353
1860.00,0.0353
1859.50,0.0353
1859.00,0.0353
1858.50,0.0353
1858.00,0.0352
1857.50,0.0352
1857.00,0.0352
1856.50,0.0353
1856.00,0.0353
1855.50,0.0353
1855.00,0.0353
1854.50,0.0353
1854.00,0.0353
1853.50,0.0353
1853.00,0.0353
1852.50,0.0353
1852.00,0.0352
1851.50,0.0352
1851.00,0.0352
1850.50,0.0352
1850.00,0.0352
1849.50,0.0352
1849.00,0.0352
1848.50,0.0352
1848.00,0.0352
1847.50,0.0352
1847.00,0.0352
1846.50,0.0352
1846.00,0.0351
1845.50,0.0351
1845.00,0.0351
1844.50,0.0351
1844.00,0.0351
1843.50,0.0351
1843.00,0.0351
1842.50,0.0351
1842.00,0.0350
1841.50,0.0350
1841.00,0.0351
1840.50,0.0351
1840.00,0.0351
1839.50,0.0351
1839.00,0.0351
1838.50,0.0351
1838.00,0.0351
1837.50,0.0351
1837.00,0.0352
1836.50,0.0351
1836.00,0.0351
1835.50,0.0351
1835.00,0.0351
1834.50,0.0351
1834.00,0.0351
1833.50,0.0351
1833.00,0.0351
1832.50,0.0352
1832.00,0.0352
1831.50,0.0352
1831.00,0.0353
1830.50,0.0354
1830.00,0.0355
1829.50,0.0355
1829.00,0.0354
1828.50,0.0354
1828.00,0.0353
1827.50,0.0353
1827.00,0.0353
1826.50,0.0353
1826.00,0.0354
1825.50,0.0354
1825.00,0.0354
1824.50,0.0354
1824.00,0.0354
1823.50,0.0354
1823.00,0.0354
1822.50,0.0354
1822.00,0.0355
1821.50,0.0355
1821.00,0.0355
1820.50,0.0356
1820.00,0.0356
1819.50,0.0356
1819.00,0.0356
1818.50,0.0356
1818.00,0.0356
1817.50,0.0356
1817.00,0.0356
1816.50,0.0357
1816.00,0.0357
1815.50,0.0358
1815.00,0.0358
1814.50,0.0359
1814.00,0.0359
1813.50,0.0360
1813.00,0.0360
1812.50,0.0360
1812.00,0.0361
1811.50,0.0361
1811.00,0.0361
1810.50,0.0362
1810.00,0.0362
1809.50,0.0363
1809.00,0.0363
1808.50,0.0364
1808.00,0.0364
1807.50,0.0365
1807.00,0.0365
1806.50,0.0366
1806.00,0.0366
1805.50,0.0366
1805.00,0.0366
1804.50,0.0367
1804.00,0.0367
1803.50,0.0368
1803.00,0.0369
1802.50,0.0369
1802.00,0.0369
1801.50,0.0369
1801.00,0.0369
1800.50,0.0370
1800.00,0.0370
1799.50,0.0371
1799.00,0.0372
1798.50,0.0372
1798.00,0.0372
1797.50,0.0373
1797.00,0.0373
1796.50,0.0374
1796.00,0.0375
1795.50,0.0375
1795.00,0.0375
1794.50,0.0375
1794.00,0.0375
1793.50,0.0376
1793.00,0.0376
1792.50,0.0377
1792.00,0.0377
1791.50,0.0376
1791.00,0.0376
1790.50,0.0377
1790.00,0.0378
1789.50,0.0379
1789.00,0.0379
1788.50,0.0380
1788.00,0.0380
1787.50,0.0380
1787.00,0.0380
1786.50,0.0380
1786.00,0.0380
1785.50,0.0380
1785.00,0.0380
1784.50,0.0380
1784.00,0.0381
1783.50,0.0381
1783.00,0.0382
1782.50,0.0382
1782.00,0.0383
1781.50,0.0383
1781.00,0.0384
1780.50,0.0383
1780.00,0.0383
1779.50,0.0383
1779.00,0.0383
1778.50,0.0383
1778.00,0.0383
1777.50,0.0384
1777.00,0.0384
1776.50,0.0384
1776.00,0.0384
1775.50,0.0385
1775.00,0.0385
1774.50,0.0385
1774.00,0.0385
1773.50,0.0386
1773.00,0.0386
1772.50,0.0386
1772.00,0.0386
1771.50,0.0386
1771.00,0.0385
1770.50,0.0385
1770.00,0.0384
1769.50,0.0384
1769.00,0.0384
1768.50,0.0384
1768.00,0.0383
1767.50,0.0383
1767.00,0.0383
1766.50,0.0383
1766.00,0.0383
1765.50,0.0383
1765.00,0.0384
1764.50,0.0384
1764.00,0.0384
1763.50,0.0384
1763.00,0.0384
1762.50,0.0384
1762.00,0.0384
1761.50,0.0384
1761.00,0.0384
1760.50,0.0383
1760.00,0.0383
1759.50,0.0383
1759.00,0.0383
1758.50,0.0383
1758.00,0.0383
1757.50,0.0383
1757.00,0.0382
1756.50,0.0382
1756.00,0.0381
1755.50,0.0381
1755.00,0.0382
1754.50,0.0382
1754.00,0.0382
1753.50,0.0381
1753.00,0.0381
1752.50,0.0379
1752.00,0.0376
1751.50,0.0374
1751.00,0.0375
1750.50,0.0377
1750.00,0.0379
1749.50,0.0381
1749.00,0.0382
1748.50,0.0382
1748.00,0.0383
1747.50,0.0384
1747.00,0.0384
1746.50,0.0383
1746.00,0.0384
1745.50,0.0384
1745.00,0.0384
1744.50,0.0385
1744.00,0.0385
1743.50,0.0386
1743.00,0.0386
1742.50,0.0385
1742.00,0.0385
1741.50,0.0385
1741.00,0.0385
1740.50,0.0386
1740.00,0.0387
1739.50,0.0387
1739.00,0.0387
1738.50,0.0386
1738.00,0.0386
1737.50,0.0386
1737.00,0.0386
1736.50,0.0386
1736.00,0.0387
1735.50,0.0387
1735.00,0.0386
1734.50,0.0382
1734.00,0.0380
1733.50,0.0380
1733.00,0.0382
1732.50,0.0385
1732.00,0.0387
1731.50,0.0389
1731.00,0.0390
1730.50,0.0390
1730.00,0.0390
1729.50,0.0390
1729.00,0.0390
1728.50,0.0391
1728.00,0.0391
1727.50,0.0391
1727.00,0.0392
1726.50,0.0392
1726.00,0.0392
1725.50,0.0392
1725.00,0.0392
1724.50,0.0392
1724.00,0.0392
1723.50,0.0392
1723.00,0.0392
1722.50,0.0392
1722.00,0.0392
1721.50,0.0392
1721.00,0.0393
1720.50,0.0393
1720.00,0.0393
1719.50,0.0393
1719.00,0.0391
1718.50,0.0390
1718.00,0.0390
1717.50,0.0391
1717.00,0.0391
1716.50,0.0392
1716.00,0.0392
1715.50,0.0393
1715.00,0.0393
1714.50,0.0393
1714.00,0.0394
1713.50,0.0393
1713.00,0.0392
1712.50,0.0392
1712.00,0.0392
1711.50,0.0392
1711.00,0.0392
1710.50,0.0392
1710.00,0.0392
1709.50,0.0392
1709.00,0.0392
1708.50,0.0392
1708.00,0.0391
1707.50,0.0391
1707.00,0.0392
1706.50,0.0392
1706.00,0.0393
1705.50,0.0394
1705.00,0.0395
1704.50,0.0396
1704.00,0.0396
1703.50,0.0395
1703.00,0.0394
1702.50,0.0393
1702.00,0.0393
1701.50,0.0393
1701.00,0.0390
1700.50,0.0385
1700.00,0.0388
1699.50,0.0391
1699.00,0.0392
1698.50,0.0392
1698.00,0.0393
1697.50,0.0393
1697.00,0.0394
1696.50,0.0394
1696.00,0.0393
1695.50,0.0393
1695.00,0.0393
1694.50,0.0393
1694.00,0.0393
1693.50,0.0394
1693.00,0.0394
1692.50,0.0394
1692.00,0.0394
1691.50,0.0394
1691.00,0.0394
1690.50,0.0394
1690.00,0.0394
1689.50,0.0395
1689.00,0.0395
1688.50,0.0395
1688.00,0.0395
1687.50,0.0395
1687.00,0.0395
1686.50,0.0395
1686.00,0.0395
1685.50,0.0394
1685.00,0.0394
1684.50,0.0396
1684.00,0.0396
1683.50,0.0397
1683.00,0.0399
1682.50,0.0400
1682.00,0.0400
1681.50,0.0400
1681.00,0.0401
1680.50,0.0401
1680.00,0.0401
1679.50,0.0400
1679.00,0.0400
1678.50,0.0400
1678.00,0.0400
1677.50,0.0400
1677.00,0.0401
1676.50,0.0401
1676.00,0.0401
1675.50,0.0400
1675.00,0.0400
1674.50,0.0401
1674.00,0.0401
1673.50,0.0402
1673.00,0.0403
1672.50,0.0404
1672.00,0.0405
1671.50,0.0405
1671.00,0.0406
1670.50,0.0406
1670.00,0.0406
1669.50,0.0406
1669.00,0.0407
1668.50,0.0408
1668.00,0.0409
1667.50,0.0409
1667.00,0.0409
1666.50,0.0409
1666.00,0.0410
1665.50,0.0410
1665.00,0.0410
1664.50,0.0411
1664.00,0.0411
1663.50,0.0411
1663.00,0.0412
1662.50,0.0413
1662.00,0.0413
1661.50,0.0413
1661.00,0.0413
1660.50,0.0413
1660.00,0.0413
1659.50,0.0414
1659.00,0.0414
1658.50,0.0414
1658.00,0.0415
1657.50,0.0416
1657.00,0.0417
1656.50,0.0417
1656.00,0.0418
1655.50,0.0418
1655.00,0.0418
1654.50,0.0418
1654.00,0.0418
1653.50,0.0420
1653.00,0.0419
1652.50,0.0422
1652.00,0.0425
1651.50,0.0426
1651.00,0.0425
1650.50,0.0425
1650.00,0.0425
1649.50,0.0425
1649.00,0.0426
1648.50,0.0425
1648.00,0.0424
1647.50,0.0424
1647.00,0.0424
1646.50,0.0424
1646.00,0.0425
1645.50,0.0425
1645.00,0.0426
1644.50,0.0425
1644.00,0.0426
1643.50,0.0426
1643.00,0.0427
1642.50,0.0427
1642.00,0.0427
1641.50,0.0426
1641.00,0.0427
1640.50,0.0427
1640.00,0.0427
1639.50,0.0428
1639.00,0.0428
1638.50,0.0428
1638.00,0.0428
1637.50,0.0429
1637.00,0.0429
1636.50,0.0429
1636.00,0.0429
1635.50,0.0429
1635.00,0.0431
1634.50,0.0432
1634.00,0.0433
1633.50,0.0434
1633.00,0.0435
1632.50,0.0435
1632.00,0.0436
1631.50,0.0436
1631.00,0.0435
1630.50,0.0435
1630.00,0.0435
1629.50,0.0435
1629.00,0.0436
1628.50,0.0436
1628.00,0.0437
1627.50,0.0438
1627.00,0.0439
1626.50,0.0439
1626.00,0.0440
1625.50,0.0440
1625.00,0.0441
1624.50,0.0442
1624.00,0.0443
1623.50,0.0443
1623.00,0.0444
1622.50,0.0444
1622.00,0.0444
1621.50,0.0444
1621.00,0.0445
1620.50,0.0446
1620.00,0.0446
1619.50,0.0446
1619.00,0.0447
1618.50,0.0447
1618.00,0.0448
1617.50,0.0448
1617.00,0.0449
1616.50,0.0451
1616.00,0.0451
1615.50,0.0450
1615.00,0.0451
1614.50,0.0451
1614.00,0.0452
1613.50,0.0453
1613.00,0.0453
1612.50,0.0454
1612.00,0.0454
1611.50,0.0453
1611.00,0.0453
1610.50,0.0453
1610.00,0.0454
1609.50,0.0454
1609.00,0.0455
1608.50,0.0456
1608.00,0.0456
1607.50,0.0457
1607.00,0.0457
1606.50,0.0458
1606.00,0.0458
1605.50,0.0458
1605.00,0.0459
1604.50,0.0459
1604.00,0.0460
1603.50,0.0461
1603.00,0.0462
1602.50,0.0463
1602.00,0.0464
1601.50,0.0464
1601.00,0.0466
1600.50,0.0467
1600.00,0.0469
1599.50,0.0471
1599.00,0.0473
1598.50,0.0476
1598.00,0.0478
1597.50,0.0479
1597.00,0.0480
1596.50,0.0480
1596.00,0.0478
1595.50,0.0476
1595.00,0.0474
1594.50,0.0471
1594.00,0.0469
1593.50,0.0467
1593.00,0.0465
1592.50,0.0463
1592.00,0.0462
1591.50,0.0461
1591.00,0.0460
1590.50,0.0459
1590.00,0.0458
1589.50,0.0457
1589.00,0.0457
1588.50,0.0456
1588.00,0.0455
1587.50,0.0454
1587.00,0.0454
1586.50,0.0453
1586.00,0.0453
1585.50,0.0452
1585.00,0.0451
1584.50,0.0451
1584.00,0.0450
1583.50,0.0450
1583.00,0.0449
1582.50,0.0449
1582.00,0.0449
1581.50,0.0448
1581.00,0.0448
1580.50,0.0448
1580.00,0.0448
1579.50,0.0448
1579.00,0.0447
1578.50,0.0447
1578.00,0.0447
1577.50,0.0448
1577.00,0.0448
1576.50,0.0447
1576.00,0.0446
1575.50,0.0445
1575.00,0.0444
1574.50,0.0444
1574.00,0.0444
1573.50,0.0444
1573.00,0.0444
1572.50,0.0444
1572.00,0.0443
1571.50,0.0443
1571.00,0.0443
1570.50,0.0443
1570.00,0.0443
1569.50,0.0442
1569.00,0.0440
1568.50,0.0439
1568.00,0.0439
1567.50,0.0438
1567.00,0.0438
1566.50,0.0438
1566.00,0.0438
1565.50,0.0438
1565.00,0.0437
1564.50,0.0437
1564.00,0.0437
1563.50,0.0437
1563.00,0.0437
1562.50,0.0438
1562.00,0.0439
1561.50,0.0440
1561.00,0.0440
1560.50,0.0437
1560.00,0.0431
1559.50,0.0427
1559.00,0.0426
1558.50,0.0429
1558.00,0.0434
1557.50,0.0438
1557.00,0.0439
1556.50,0.0439
1556.00,0.0439
1555.50,0.0439
1555.00,0.0439
1554.50,0.0437
1554.00,0.0435
1553.50,0.0433
1553.00,0.0432
1552.50,0.0432
1552.00,0.0433
1551.50,0.0433
1551.00,0.0433
1550.50,0.0433
1550.00,0.0431
1549.50,0.0431
1549.00,0.0431
1548.50,0.0431
1548.00,0.0431
1547.50,0.0431
1547.00,0.0431
1546.50,0.0431
1546.00,0.0431
1545.50,0.0430
1545.00,0.0431
1544.50,0.0432
1544.00,0.0432
1543.50,0.0433
1543.00,0.0435
1542.50,0.0437
1542.00,0.0438
1541.50,0.0438
1541.00,0.0438
1540.50,0.0436
1540.00,0.0433
1539.50,0.0433
1539.00,0.0435
1538.50,0.0434
1538.00,0.0433
1537.50,0.0432
1537.00,0.0432
1536.50,0.0432
1536.00,0.0431
1535.50,0.0430
1535.00,0.0430
1534.50,0.0431
1534.00,0.0429
1533.50,0.0428
1533.00,0.0428
1532.50,0.0428
1532.00,0.0427
1531.50,0.0427
1531.00,0.0427
1530.50,0.0427
1530.00,0.0427
1529.50,0.0426
1529.00,0.0426
1528.50,0.0426
1528.00,0.0425
1527.50,0.0425
1527.00,0.0425
1526.50,0.0426
1526.00,0.0426
1525.50,0.0425
1525.00,0.0425
1524.50,0.0425
1524.00,0.0425
1523.50,0.0425
1523.00,0.0425
1522.50,0.0426
1522.00,0.0426
1521.50,0.0427
1521.00,0.0426
1520.50,0.0426
1520.00,0.0426
1519.50,0.0425
1519.00,0.0424
1518.50,0.0424
1518.00,0.0425
1517.50,0.0425
1517.00,0.0424
1516.50,0.0424
1516.00,0.0423
1515.50,0.0422
1515.00,0.0421
1514.50,0.0421
1514.00,0.0421
1513.50,0.0421
1513.00,0.0421
1512.50,0.0420
1512.00,0.0420
1511.50,0.0420
1511.00,0.0420
1510.50,0.0420
1510.00,0.0420
1509.50,0.0420
1509.00,0.0420
1508.50,0.0420
1508.00,0.0419
1507.50,0.0418
1507.00,0.0417
1506.50,0.0418
1506.00,0.0420
1505.50,0.0421
1505.00,0.0422
1504.50,0.0422
1504.00,0.0422
1503.50,0.0422
1503.00,0.0422
1502.50,0.0422
1502.00,0.0421
1501.50,0.0420
1501.00,0.0420
1500.50,0.0420
1500.00,0.0422
1499.50,0.0422
1499.00,0.0422
1498.50,0.0421
1498.00,0.0421
1497.50,0.0423
1497.00,0.0425
1496.50,0.0425
1496.00,0.0423
1495.50,0.0423
1495.00,0.0424
1494.50,0.0425
1494.00,0.0425
1493.50,0.0426
1493.00,0.0426
1492.50,0.0425
1492.00,0.0425
1491.50,0.0424
1491.00,0.0425
1490.50,0.0426
1490.00,0.0429
1489.50,0.0432
1489.00,0.0434
1488.50,0.0434
1488.00,0.0435
1487.50,0.0436
1487.00,0.0438
1486.50,0.0439
1486.00,0.0439
1485.50,0.0440
1485.00,0.0441
1484.50,0.0441
1484.00,0.0442
1483.50,0.0443
1483.00,0.0443
1482.50,0.0443
1482.00,0.0443
1481.50,0.0443
1481.00,0.0443
1480.50,0.0444
1480.00,0.0444
1479.50,0.0444
1479.00,0.0444
1478.50,0.0445
1478.00,0.0445
1477.50,0.0445
1477.00,0.0444
1476.50,0.0444
1476.00,0.0445
1475.50,0.0446
1475.00,0.0446
1474.50,0.0446
1474.00,0.0446
1473.50,0.0446
1473.00,0.0447
1472.50,0.0449
1472.00,0.0452
1471.50,0.0455
1471.00,0.0459
1470.50,0.0462
1470.00,0.0464
1469.50,0.0467
1469.00,0.0470
1468.50,0.0473
1468.00,0.0475
1467.50,0.0477
1467.00,0.0480
1466.50,0.0482
1466.00,0.0484
1465.50,0.0486
1465.00,0.0488
1464.50,0.0490
1464.00,0.0493
1463.50,0.0495
1463.00,0.0498
1462.50,0.0502
1462.00,0.0506
1461.50,0.0510
1461.00,0.0514
1460.50,0.0518
1460.00,0.0522
1459.50,0.0527
1459.00,0.0531
1458.50,0.0535
1458.00,0.0540
1457.50,0.0544
1457.00,0.0548
1456.50,0.0553
1456.00,0.0558
1455.50,0.0562
1455.00,0.0566
1454.50,0.0570
1454.00,0.0576
1453.50,0.0581
1453.00,0.0585
1452.50,0.0590
1452.00,0.0595
1451.50,0.0601
1451.00,0.0606
1450.50,0.0611
1450.00,0.0616
1449.50,0.0620
1449.00,0.0623
1448.50,0.0627
1448.00,0.0631
1447.50,0.0636
1447.00,0.0639
1446.50,0.0641
1446.00,0.0642
1445.50,0.0642
1445.00,0.0642
1444.50,0.0641
1444.00,0.0639
1443.50,0.0637
1443.00,0.0635
1442.50,0.0631
1442.00,0.0628
1441.50,0.0625
1441.00,0.0621
1440.50,0.0617
1440.00,0.0614
1439.50,0.0610
1439.00,0.0607
1438.50,0.0604
1438.00,0.0601
1437.50,0.0598
1437.00,0.0594
1436.50,0.0591
1436.00,0.0590
1435.50,0.0590
1435.00,0.0590
1434.50,0.0590
1434.00,0.0590
1433.50,0.0591
1433.00,0.0592
1432.50,0.0592
1432.00,0.0594
1431.50,0.0596
1431.00,0.0599
1430.50,0.0602
1430.00,0.0606
1429.50,0.0611
1429.00,0.0616
1428.50,0.0620
1428.00,0.0626
1427.50,0.0633
1427.00,0.0641
1426.50,0.0649
1426.00,0.0657
1425.50,0.0666
1425.00,0.0676
1424.50,0.0687
1424.00,0.0700
1423.50,0.0714
1423.00,0.0729
1422.50,0.0744
1422.00,0.0760
1421.50,0.0775
1421.00,0.0791
1420.50,0.0806
1420.00,0.0824
1419.50,0.0847
1419.00,0.0871
1418.50,0.0891
1418.00,0.0906
1417.50,0.0920
1417.00,0.0936
1416.50,0.0952
1416.00,0.0966
1415.50,0.0979
1415.00,0.0990
1414.50,0.1000
1414.00,0.1007
1413.50,0.1013
1413.00,0.1018
1412.50,0.1021
1412.00,0.1022
1411.50,0.1022
1411.00,0.1021
1410.50,0.1019
1410.00,0.1015
1409.50,0.1011
1409.00,0.1006
1408.50,0.1000
1408.00,0.0993
1407.50,0.0986
1407.00,0.0978
1406.50,0.0971
1406.00,0.0963
1405.50,0.0954
1405.00,0.0945
1404.50,0.0937
1404.00,0.0930
1403.50,0.0923
1403.00,0.0916
1402.50,0.0909
1402.00,0.0903
1401.50,0.0895
1401.00,0.0887
1400.50,0.0879
1400.00,0.0869
1399.50,0.0858
1399.00,0.0845
1398.50,0.0833
1398.00,0.0821
1397.50,0.0809
1397.00,0.0798
1396.50,0.0786
1396.00,0.0775
1395.50,0.0762
1395.00,0.0748
1394.50,0.0731
1394.00,0.0714
1393.50,0.0698
1393.00,0.0683
1392.50,0.0669
1392.00,0.0656
1391.50,0.0643
1391.00,0.0632
1390.50,0.0621
1390.00,0.0612
1389.50,0.0603
1389.00,0.0596
1388.50,0.0590
1388.00,0.0583
1387.50,0.0577
1387.00,0.0570
1386.50,0.0564
1386.00,0.0560
1385.50,0.0556
1385.00,0.0552
1384.50,0.0548
1384.00,0.0544
1383.50,0.0540
1383.00,0.0535
1382.50,0.0531
1382.00,0.0528
1381.50,0.0524
1381.00,0.0522
1380.50,0.0519
1380.00,0.0517
1379.50,0.0515
1379.00,0.0513
1378.50,0.0511
1378.00,0.0510
1377.50,0.0509
1377.00,0.0508
1376.50,0.0507
1376.00,0.0507
1375.50,0.0506
1375.00,0.0506
1374.50,0.0506
1374.00,0.0506
1373.50,0.0506
1373.00,0.0505
1372.50,0.0505
1372.00,0.0504
1371.50,0.0503
1371.00,0.0502
1370.50,0.0501
1370.00,0.0500
1369.50,0.0499
1369.00,0.0498
1368.50,0.0497
1368.00,0.0496
1367.50,0.0495
1367.00,0.0493
1366.50,0.0493
1366.00,0.0492
1365.50,0.0491
1365.00,0.0491
1364.50,0.0490
1364.00,0.0490
1363.50,0.0489
1363.00,0.0489
1362.50,0.0489
1362.00,0.0488
1361.50,0.0488
1361.00,0.0488
1360.50,0.0487
1360.00,0.0487
1359.50,0.0486
1359.00,0.0485
1358.50,0.0485
1358.00,0.0485
1357.50,0.0484
1357.00,0.0484
1356.50,0.0484
1356.00,0.0484
1355.50,0.0484
1355.00,0.0484
1354.50,0.0484
1354.00,0.0484
1353.50,0.0484
1353.00,0.0484
1352.50,0.0484
1352.00,0.0485
1351.50,0.0485
1351.00,0.0485
1350.50,0.0485
1350.00,0.0485
1349.50,0.0486
1349.00,0.0485
1348.50,0.0486
1348.00,0.0486
1347.50,0.0486
1347.00,0.0486
1346.50,0.0486
1346.00,0.0487
1345.50,0.0487
1345.00,0.0487
1344.50,0.0487
1344.00,0.0487
1343.50,0.0487
1343.00,0.0487
1342.50,0.0487
1342.00,0.0488
1341.50,0.0488
1341.00,0.0487
1340.50,0.0487
1340.00,0.0488
1339.50,0.0488
1339.00,0.0489
1338.50,0.0489
1338.00,0.0489
1337.50,0.0490
1337.00,0.0490
1336.50,0.0490
1336.00,0.0491
1335.50,0.0491
1335.00,0.0491
1334.50,0.0492
1334.00,0.0493
1333.50,0.0493
1333.00,0.0494
1332.50,0.0495
1332.00,0.0496
1331.50,0.0497
1331.00,0.0498
1330.50,0.0499
1330.00,0.0501
1329.50,0.0502
1329.00,0.0503
1328.50,0.0505
1328.00,0.0506
1327.50,0.0508
1327.00,0.0510
1326.50,0.0511
1326.00,0.0513
1325.50,0.0515
1325.00,0.0517
1324.50,0.0519
1324.00,0.0521
1323.50,0.0523
1323.00,0.0525
1322.50,0.0527
1322.00,0.0530
1321.50,0.0532
1321.00,0.0534
1320.50,0.0537
1320.00,0.0539
1319.50,0.0542
1319.00,0.0544
1318.50,0.0547
1318.00,0.0550
1317.50,0.0552
1317.00,0.0555
1316.50,0.0558
1316.00,0.0561
1315.50,0.0564
1315.00,0.0567
1314.50,0.0570
1314.00,0.0573
1313.50,0.0576
1313.00,0.0579
1312.50,0.0582
1312.00,0.0586
1311.50,0.0589
1311.00,0.0593
1310.50,0.0596
1310.00,0.0600
1309.50,0.0603
1309.00,0.0607
1308.50,0.0610
1308.00,0.0614
1307.50,0.0618
1307.00,0.0622
1306.50,0.0626
1306.00,0.0630
1305.50,0.0634
1305.00,0.0639
1304.50,0.0643
1304.00,0.0648
1303.50,0.0652
1303.00,0.0657
1302.50,0.0662
1302.00,0.0667
1301.50,0.0672
1301.00,0.0677
1300.50,0.0682
1300.00,0.0688
1299.50,0.0694
1299.00,0.0700
1298.50,0.0706
1298.00,0.0713
1297.50,0.0720
1297.00,0.0726
1296.50,0.0734
1296.00,0.0741
1295.50,0.0749
1295.00,0.0757
1294.50,0.0765
1294.00,0.0773
1293.50,0.0782
1293.00,0.0791
1292.50,0.0801
1292.00,0.0810
1291.50,0.0820
1291.00,0.0831
1290.50,0.0842
1290.00,0.0853
1289.50,0.0865
1289.00,0.0877
1288.50,0.0890
1288.00,0.0903
1287.50,0.0917
1287.00,0.0931
1286.50,0.0947
1286.00,0.0963
1285.50,0.0980
1285.00,0.0998
1284.50,0.1017
1284.00,0.1037
1283.50,0.1059
1283.00,0.1082
1282.50,0.1106
1282.00,0.1132
1281.50,0.1160
1281.00,0.1190
1280.50,0.1222
1280.00,0.1257
1279.50,0.1295
1279.00,0.1336
1278.50,0.1381
1278.00,0.1429
1277.50,0.1481
1277.00,0.1538
1276.50,0.1601
1276.00,0.1670
1275.50,0.1746
1275.00,0.1829
1274.50,0.1921
1274.00,0.2023
1273.50,0.2136
1273.00,0.2261
1272.50,0.2401
1272.00,0.2558
1271.50,0.2734
1271.00,0.2929
1270.50,0.3146
1270.00,0.3385
1269.50,0.3648
1269.00,0.3935
1268.50,0.4243
1268.00,0.4567
1267.50,0.4901
1267.00,0.5239
1266.50,0.5572
1266.00,0.5891
1265.50,0.6188
1265.00,0.6461
1264.50,0.6701
1264.00,0.6905
1263.50,0.7074
1263.00,0.7206
1262.50,0.7299
1262.00,0.7352
1261.50,0.7369
1261.00,0.7354
1260.50,0.7306
1260.00,0.7226
1259.50,0.7120
1259.00,0.6991
1258.50,0.6840
1258.00,0.6667
1257.50,0.6481
1257.00,0.6288
1256.50,0.6089
1256.00,0.5889
1255.50,0.5691
1255.00,0.5496
1254.50,0.5302
1254.00,0.5105
1253.50,0.4904
1253.00,0.4697
1252.50,0.4481
1252.00,0.4257
1251.50,0.4028
1251.00,0.3799
1250.50,0.3572
1250.00,0.3351
1249.50,0.3142
1249.00,0.2945
1248.50,0.2764
1248.00,0.2597
1247.50,0.2445
1247.00,0.2309
1246.50,0.2187
1246.00,0.2077
1245.50,0.1980
1245.00,0.1893
1244.50,0.1815
1244.00,0.1744
1243.50,0.1681
1243.00,0.1624
1242.50,0.1573
1242.00,0.1526
1241.50,0.1484
1241.00,0.1446
1240.50,0.1412
1240.00,0.1380
1239.50,0.1352
1239.00,0.1326
1238.50,0.1303
1238.00,0.1281
1237.50,0.1262
1237.00,0.1245
1236.50,0.1229
1236.00,0.1215
1235.50,0.1202
1235.00,0.1191
1234.50,0.1182
1234.00,0.1173
1233.50,0.1166
1233.00,0.1160
1232.50,0.1155
1232.00,0.1151
1231.50,0.1148
1231.00,0.1146
1230.50,0.1145
1230.00,0.1144
1229.50,0.1145
1229.00,0.1146
1228.50,0.1149
1228.00,0.1152
1227.50,0.1155
1227.00,0.1160
1226.50,0.1165
1226.00,0.1171
1225.50,0.1177
1225.00,0.1184
1224.50,0.1192
1224.00,0.1200
1223.50,0.1209
1223.00,0.1219
1222.50,0.1229
1222.00,0.1240
1221.50,0.1251
1221.00,0.1263
1220.50,0.1275
1220.00,0.1288
1219.50,0.1302
1219.00,0.1316
1218.50,0.1330
1218.00,0.1344
1217.50,0.1359
1217.00,0.1374
1216.50,0.1390
1216.00,0.1406
1215.50,0.1423
1215.00,0.1439
1214.50,0.1456
1214.00,0.1473
1213.50,0.1490
1213.00,0.1507
1212.50,0.1524
1212.00,0.1542
1211.50,0.1559
1211.00,0.1577
1210.50,0.1595
1210.00,0.1612
1209.50,0.1630
1209.00,0.1647
1208.50,0.1665
1208.00,0.1683
1207.50,0.1700
1207.00,0.1717
1206.50,0.1734
1206.00,0.1751
1205.50,0.1767
1205.00,0.1784
1204.50,0.1800
1204.00,0.1815
1203.50,0.1831
1203.00,0.1846
1202.50,0.1861
1202.00,0.1876
1201.50,0.1890
1201.00,0.1905
1200.50,0.1919
1200.00,0.1932
1199.50,0.1945
1199.00,0.1958
1198.50,0.1971
1198.00,0.1983
1197.50,0.1995
1197.00,0.2006
1196.50,0.2018
1196.00,0.2029
1195.50,0.2039
1195.00,0.2050
1194.50,0.2060
1194.00,0.2069
1193.50,0.2078
1193.00,0.2088
1192.50,0.2097
1192.00,0.2105
1191.50,0.2113
1191.00,0.2121
1190.50,0.2129
1190.00,0.2137
1189.50,0.2144
1189.00,0.2152
1188.50,0.2160
1188.00,0.2168
1187.50,0.2177
1187.00,0.2186
1186.50,0.2194
1186.00,0.2201
1185.50,0.2206
1185.00,0.2210
1184.50,0.2214
1184.00,0.2217
1183.50,0.2221
1183.00,0.2225
1182.50,0.2230
1182.00,0.2234
1181.50,0.2239
1181.00,0.2245
1180.50,0.2250
1180.00,0.2255
1179.50,0.2260
1179.00,0.2266
1178.50,0.2272
1178.00,0.2278
1177.50,0.2284
1177.00,0.2290
1176.50,0.2296
1176.00,0.2303
1175.50,0.2309
1175.00,0.2316
1174.50,0.2322
1174.00,0.2328
1173.50,0.2335
1173.00,0.2341
1172.50,0.2348
1172.00,0.2354
1171.50,0.2361
1171.00,0.2367
1170.50,0.2374
1170.00,0.2380
1169.50,0.2387
1169.00,0.2394
1168.50,0.2401
1168.00,0.2408
1167.50,0.2416
1167.00,0.2424
1166.50,0.2432
1166.00,0.2440
1165.50,0.2448
1165.00,0.2457
1164.50,0.2466
1164.00,0.2475
1163.50,0.2484
1163.00,0.2495
1162.50,0.2505
1162.00,0.2516
1161.50,0.2527
1161.00,0.2539
1160.50,0.2551
1160.00,0.2563
1159.50,0.2576
1159.00,0.2589
1158.50,0.2603
1158.00,0.2616
1157.50,0.2630
1157.00,0.2644
1156.50,0.2659
1156.00,0.2673
1155.50,0.2688
1155.00,0.2703
1154.50,0.2719
1154.00,0.2736
1153.50,0.2753
1153.00,0.2770
1152.50,0.2789
1152.00,0.2807
1151.50,0.2826
1151.00,0.2847
1150.50,0.2868
1150.00,0.2889
1149.50,0.2912
1149.00,0.2935
1148.50,0.2959
1148.00,0.2984
1147.50,0.3009
1147.00,0.3036
1146.50,0.3064
1146.00,0.3093
1145.50,0.3123
1145.00,0.3154
1144.50,0.3186
1144.00,0.3219
1143.50,0.3253
1143.00,0.3288
1142.50,0.3324
1142.00,0.3361
1141.50,0.3398
1141.00,0.3436
1140.50,0.3474
1140.00,0.3512
1139.50,0.3550
1139.00,0.3588
1138.50,0.3626
1138.00,0.3663
1137.50,0.3700
1137.00,0.3738
1136.50,0.3775
1136.00,0.3813
1135.50,0.3851
1135.00,0.3891
1134.50,0.3932
1134.00,0.3973
1133.50,0.4015
1133.00,0.4060
1132.50,0.4106
1132.00,0.4154
1131.50,0.4203
1131.00,0.4255
1130.50,0.4308
1130.00,0.4362
1129.50,0.4418
1129.00,0.4476
1128.50,0.4536
1128.00,0.4596
1127.50,0.4657
1127.00,0.4720
1126.50,0.4785
1126.00,0.4850
1125.50,0.4916
1125.00,0.4984
1124.50,0.5052
1124.00,0.5120
1123.50,0.5190
1123.00,0.5261
1122.50,0.5332
1122.00,0.5403
1121.50,0.5475
1121.00,0.5548
1120.50,0.5621
1120.00,0.5694
1119.50,0.5767
1119.00,0.5841
1118.50,0.5915
1118.00,0.5987
1117.50,0.6060
1117.00,0.6134
1116.50,0.6208
1116.00,0.6280
1115.50,0.6352
1115.00,0.6424
1114.50,0.6496
1114.00,0.6566
1113.50,0.6635
1113.00,0.6706
1112.50,0.6775
1112.00,0.6842
1111.50,0.6909
1111.00,0.6976
1110.50,0.7042
1110.00,0.7106
1109.50,0.7170
1109.00,0.7235
1108.50,0.7298
1108.00,0.7359
1107.50,0.7419
1107.00,0.7479
1106.50,0.7539
1106.00,0.7595
1105.50,0.7652
1105.00,0.7709
1104.50,0.7764
1104.00,0.7816
1103.50,0.7867
1103.00,0.7920
1102.50,0.7970
1102.00,0.8017
1101.50,0.8064
1101.00,0.8110
1100.50,0.8155
1100.00,0.8197
1099.50,0.8239
1099.00,0.8280
1098.50,0.8320
1098.00,0.8355
1097.50,0.8390
1097.00,0.8425
1096.50,0.8458
1096.00,0.8487
1095.50,0.8516
1095.00,0.8545
1094.50,0.8572
1094.00,0.8595
1093.50,0.8617
1093.00,0.8639
1092.50,0.8660
1092.00,0.8677
1091.50,0.8692
1091.00,0.8707
1090.50,0.8720
1090.00,0.8728
1089.50,0.8737
1089.00,0.8746
1088.50,0.8752
1088.00,0.8753
1087.50,0.8755
1087.00,0.8758
1086.50,0.8760
1086.00,0.8759
1085.50,0.8757
1085.00,0.8756
1084.50,0.8752
1084.00,0.8744
1083.50,0.8735
1083.00,0.8728
1082.50,0.8720
1082.00,0.8710
1081.50,0.8698
1081.00,0.8688
1080.50,0.8677
1080.00,0.8662
1079.50,0.8649
1079.00,0.8636
1078.50,0.8621
1078.00,0.8602
1077.50,0.8583
1077.00,0.8566
1076.50,0.8549
1076.00,0.8530
1075.50,0.8511
1075.00,0.8493
1074.50,0.8473
1074.00,0.8451
1073.50,0.8429
1073.00,0.8410
1072.50,0.8390
1072.00,0.8367
1071.50,0.8344
1071.00,0.8323
1070.50,0.8301
1070.00,0.8277
1069.50,0.8255
1069.00,0.8234
1068.50,0.8212
1068.00,0.8187
1067.50,0.8163
1067.00,0.8142
1066.50,0.8120
1066.00,0.8096
1065.50,0.8072
1065.00,0.8050
1064.50,0.8027
1064.00,0.8001
1063.50,0.7977
1063.00,0.7954
1062.50,0.7930
1062.00,0.7905
1061.50,0.7880
1061.00,0.7857
1060.50,0.7834
1060.00,0.7809
1059.50,0.7785
1059.00,0.7763
1058.50,0.7740
1058.00,0.7716
1057.50,0.7693
1057.00,0.7672
1056.50,0.7650
1056.00,0.7628
1055.50,0.7606
1055.00,0.7585
1054.50,0.7564
1054.00,0.7541
1053.50,0.7519
1053.00,0.7500
1052.50,0.7482
1052.00,0.7461
1051.50,0.7441
1051.00,0.7424
1050.50,0.7406
1050.00,0.7387
1049.50,0.7370
1049.00,0.7355
1048.50,0.7339
1048.00,0.7321
1047.50,0.7305
1047.00,0.7291
1046.50,0.7279
1046.00,0.7266
1045.50,0.7254
1045.00,0.7245
1044.50,0.7236
1044.00,0.7225
1043.50,0.7215
1043.00,0.7208
1042.50,0.7201
1042.00,0.7193
1041.50,0.7187
1041.00,0.7183
1040.50,0.7179
1040.00,0.7175
1039.50,0.7173
1039.00,0.7171
1038.50,0.7170
1038.00,0.7168
1037.50,0.7167
1037.00,0.7169
1036.50,0.7171
1036.00,0.7173
1035.50,0.7176
1035.00,0.7180
1034.50,0.7185
1034.00,0.7189
1033.50,0.7194
1033.00,0.7200
1032.50,0.7206
1032.00,0.7212
1031.50,0.7218
1031.00,0.7226
1030.50,0.7234
1030.00,0.7242
1029.50,0.7249
1029.00,0.7258
1028.50,0.7267
1028.00,0.7274
1027.50,0.7281
1027.00,0.7289
1026.50,0.7297
1026.00,0.7304
1025.50,0.7311
1025.00,0.7319
1024.50,0.7325
1024.00,0.7328
1023.50,0.7331
1023.00,0.7334
1022.50,0.7335
1022.00,0.7333
1021.50,0.7329
1021.00,0.7323
1020.50,0.7314
1020.00,0.7301
1019.50,0.7286
1019.00,0.7269
1018.50,0.7247
1018.00,0.7219
1017.50,0.7186
1017.00,0.7149
1016.50,0.7108
1016.00,0.7059
1015.50,0.7005
1015.00,0.6945
1014.50,0.6879
1014.00,0.6806
1013.50,0.6726
1013.00,0.6640
1012.50,0.6548
1012.00,0.6449
1011.50,0.6344
1011.00,0.6235
1010.50,0.6121
1010.00,0.6003
1009.50,0.5881
1009.00,0.5756
1008.50,0.5629
1008.00,0.5500
1007.50,0.5370
1007.00,0.5241
1006.50,0.5111
1006.00,0.4980
1005.50,0.4850
1005.00,0.4722
1004.50,0.4596
1004.00,0.4472
1003.50,0.4350
1003.00,0.4232
1002.50,0.4116
1002.00,0.4002
1001.50,0.3892
1001.00,0.3786
1000.50,0.3683
1000.00,0.3583
999.50,0.3486
999.00,0.3394
998.50,0.3304
998.00,0.3218
997.50,0.3135
997.00,0.3055
996.50,0.2978
996.00,0.2904
995.50,0.2832
995.00,0.2764
994.50,0.2698
994.00,0.2634
993.50,0.2573
993.00,0.2514
992.50,0.2457
992.00,0.2402
991.50,0.2349
991.00,0.2298
990.50,0.2248
990.00,0.2201
989.50,0.2154
989.00,0.2110
988.50,0.2067
988.00,0.2026
987.50,0.1986
987.00,0.1947
986.50,0.1910
986.00,0.1874
985.50,0.1839
985.00,0.1805
984.50,0.1772
984.00,0.1740
983.50,0.1709
983.00,0.1680
982.50,0.1651
982.00,0.1623
981.50,0.1597
981.00,0.1571
980.50,0.1546
980.00,0.1522
979.50,0.1499
979.00,0.1476
978.50,0.1454
978.00,0.1433
977.50,0.1413
977.00,0.1393
976.50,0.1374
976.00,0.1355
975.50,0.1338
975.00,0.1320
974.50,0.1303
974.00,0.1287
973.50,0.1272
973.00,0.1257
972.50,0.1242
972.00,0.1228
971.50,0.1214
971.00,0.1201
970.50,0.1188
970.00,0.1176
969.50,0.1164
969.00,0.1152
968.50,0.1141
968.00,0.1130
967.50,0.1120
967.00,0.1111
966.50,0.1102
966.00,0.1093
965.50,0.1085
965.00,0.1077
964.50,0.1069
964.00,0.1062
963.50,0.1054
963.00,0.1048
962.50,0.1041
962.00,0.1035
961.50,0.1029
961.00,0.1023
960.50,0.1017
960.00,0.1011
959.50,0.1005
959.00,0.0998
958.50,0.0992
958.00,0.0986
957.50,0.0979
957.00,0.0974
956.50,0.0969
956.00,0.0964
955.50,0.0958
955.00,0.0952
954.50,0.0946
954.00,0.0939
953.50,0.0933
953.00,0.0926
952.50,0.0919
952.00,0.0912
951.50,0.0905
951.00,0.0898
950.50,0.0891
950.00,0.0885
949.50,0.0879
949.00,0.0873
948.50,0.0868
948.00,0.0863
947.50,0.0858
947.00,0.0853
946.50,0.0849
946.00,0.0845
945.50,0.0841
945.00,0.0838
944.50,0.0834
944.00,0.0831
943.50,0.0828
943.00,0.0825
942.50,0.0822
942.00,0.0820
941.50,0.0818
941.00,0.0816
940.50,0.0814
940.00,0.0813
939.50,0.0811
939.00,0.0810
938.50,0.0809
938.00,0.0808
937.50,0.0807
937.00,0.0806
936.50,0.0806
936.00,0.0806
935.50,0.0807
935.00,0.0807
934.50,0.0807
934.00,0.0808
933.50,0.0809
933.00,0.0810
932.50,0.0812
932.00,0.0813
931.50,0.0815
931.00,0.0817
930.50,0.0819
930.00,0.0822
929.50,0.0824
929.00,0.0827
928.50,0.0830
928.00,0.0833
927.50,0.0837
927.00,0.0840
926.50,0.0844
926.00,0.0848
925.50,0.0852
925.00,0.0857
924.50,0.0862
924.00,0.0867
923.50,0.0873
923.00,0.0879
922.50,0.0886
922.00,0.0894
921.50,0.0902
921.00,0.0911
920.50,0.0921
920.00,0.0932
919.50,0.0943
919.00,0.0955
918.50,0.0968
918.00,0.0981
917.50,0.0994
917.00,0.1008
916.50,0.1022
916.00,0.1037
915.50,0.1051
915.00,0.1065
914.50,0.1079
914.00,0.1091
913.50,0.1103
913.00,0.1114
912.50,0.1124
912.00,0.1133
911.50,0.1140
911.00,0.1146
910.50,0.1151
910.00,0.1155
909.50,0.1159
909.00,0.1161
908.50,0.1163
908.00,0.1164
907.50,0.1165
907.00,0.1166
906.50,0.1166
906.00,0.1167
905.50,0.1168
905.00,0.1169
904.50,0.1170
904.00,0.1172
903.50,0.1175
903.00,0.1178
902.50,0.1182
902.00,0.1186
901.50,0.1192
901.00,0.1198
900.50,0.1205
900.00,0.1213
899.50,0.1221
899.00,0.1231
898.50,0.1241
898.00,0.1253
897.50,0.1265
897.00,0.1278
896.50,0.1292
896.00,0.1307
895.50,0.1322
895.00,0.1339
894.50,0.1357
894.00,0.1375
893.50,0.1394
893.00,0.1413
892.50,0.1433
892.00,0.1454
891.50,0.1476
891.00,0.1499
890.50,0.1522
890.00,0.1547
889.50,0.1573
889.00,0.1600
888.50,0.1628
888.00,0.1658
887.50,0.1689
887.00,0.1722
886.50,0.1756
886.00,0.1792
885.50,0.1830
885.00,0.1870
884.50,0.1912
884.00,0.1956
883.50,0.2002
883.00,0.2050
882.50,0.2099
882.00,0.2150
881.50,0.2203
881.00,0.2258
880.50,0.2315
880.00,0.2373
879.50,0.2433
879.00,0.2495
878.50,0.2558
878.00,0.2623
877.50,0.2689
877.00,0.2758
876.50,0.2828
876.00,0.2900
875.50,0.2973
875.00,0.3047
874.50,0.3122
874.00,0.3197
873.50,0.3272
873.00,0.3347
872.50,0.3420
872.00,0.3492
871.50,0.3561
871.00,0.3627
870.50,0.3689
870.00,0.3745
869.50,0.3796
869.00,0.3840
868.50,0.3878
868.00,0.3909
867.50,0.3933
867.00,0.3950
866.50,0.3961
866.00,0.3966
865.50,0.3964
865.00,0.3957
864.50,0.3946
864.00,0.3930
863.50,0.3911
863.00,0.3890
862.50,0.3868
862.00,0.3844
861.50,0.3820
861.00,0.3797
860.50,0.3775
860.00,0.3754
859.50,0.3735
859.00,0.3720
858.50,0.3708
858.00,0.3699
857.50,0.3695
857.00,0.3697
856.50,0.3704
856.00,0.3715
855.50,0.3732
855.00,0.3754
854.50,0.3780
854.00,0.3811
853.50,0.3847
853.00,0.3887
852.50,0.3931
852.00,0.3978
851.50,0.4026
851.00,0.4075
850.50,0.4125
850.00,0.4174
849.50,0.4221
849.00,0.4268
848.50,0.4311
848.00,0.4349
847.50,0.4382
847.00,0.4411
846.50,0.4432
846.00,0.4447
845.50,0.4455
845.00,0.4456
844.50,0.4450
844.00,0.4436
843.50,0.4415
843.00,0.4389
842.50,0.4357
842.00,0.4321
841.50,0.4280
841.00,0.4237
840.50,0.4192
840.00,0.4145
839.50,0.4098
839.00,0.4052
838.50,0.4009
838.00,0.3967
837.50,0.3929
837.00,0.3894
836.50,0.3864
836.00,0.3838
835.50,0.3818
835.00,0.3804
834.50,0.3796
834.00,0.3794
833.50,0.3798
833.00,0.3808
832.50,0.3826
832.00,0.3850
831.50,0.3881
831.00,0.3919
830.50,0.3964
830.00,0.4016
829.50,0.4075
829.00,0.4142
828.50,0.4216
828.00,0.4297
827.50,0.4384
827.00,0.4477
826.50,0.4577
826.00,0.4681
825.50,0.4786
825.00,0.4894
824.50,0.5001
824.00,0.5108
823.50,0.5212
823.00,0.5314
822.50,0.5410
822.00,0.5499
821.50,0.5581
821.00,0.5657
820.50,0.5727
820.00,0.5791
819.50,0.5849
819.00,0.5904
818.50,0.5956
818.00,0.6004
817.50,0.6050
817.00,0.6095
816.50,0.6140
816.00,0.6186
815.50,0.6233
815.00,0.6283
814.50,0.6337
814.00,0.6392
813.50,0.6450
813.00,0.6512
812.50,0.6576
812.00,0.6643
811.50,0.6711
811.00,0.6783
810.50,0.6856
810.00,0.6930
809.50,0.7004
809.00,0.7079
808.50,0.7154
808.00,0.7228
807.50,0.7300
807.00,0.7372
806.50,0.7441
806.00,0.7506
805.50,0.7568
805.00,0.7626
804.50,0.7681
804.00,0.7730
803.50,0.7773
803.00,0.7811
802.50,0.7842
802.00,0.7865
801.50,0.7881
801.00,0.7891
800.50,0.7893
800.00,0.7886
799.50,0.7871
799.00,0.7849
798.50,0.7819
798.00,0.7779
797.50,0.7730
797.00,0.7674
796.50,0.7610
796.00,0.7536
795.50,0.7454
795.00,0.7365
794.50,0.7269
794.00,0.7164
793.50,0.7051
793.00,0.6932
792.50,0.6806
792.00,0.6673
791.50,0.6533
791.00,0.6388
790.50,0.6238
790.00,0.6082
789.50,0.5923
789.00,0.5761
788.50,0.5598
788.00,0.5433
787.50,0.5267
787.00,0.5102
786.50,0.4938
786.00,0.4776
785.50,0.4617
785.00,0.4462
784.50,0.4312
784.00,0.4166
783.50,0.4024
783.00,0.3889
782.50,0.3759
782.00,0.3635
781.50,0.3518
781.00,0.3406
780.50,0.3300
780.00,0.3199
779.50,0.3102
779.00,0.3011
778.50,0.2925
778.00,0.2844
777.50,0.2767
777.00,0.2695
776.50,0.2628
776.00,0.2565
775.50,0.2507
775.00,0.2453
774.50,0.2403
774.00,0.2357
773.50,0.2313
773.00,0.2273
772.50,0.2236
772.00,0.2202
771.50,0.2171
771.00,0.2143
770.50,0.2117
770.00,0.2094
769.50,0.2073
769.00,0.2055
768.50,0.2040
768.00,0.2027
767.50,0.2017
767.00,0.2010
766.50,0.2006
766.00,0.2005
765.50,0.2007
765.00,0.2013
764.50,0.2022
764.00,0.2034
763.50,0.2050
763.00,0.2068
762.50,0.2089
762.00,0.2114
761.50,0.2140
761.00,0.2168
760.50,0.2196
760.00,0.2223
759.50,0.2248
759.00,0.2269
758.50,0.2285
758.00,0.2293
757.50,0.2293
757.00,0.2284
756.50,0.2265
756.00,0.2238
755.50,0.2202
755.00,0.2158
754.50,0.2109
754.00,0.2055
753.50,0.1998
753.00,0.1940
752.50,0.1882
752.00,0.1825
751.50,0.1771
751.00,0.1719
750.50,0.1670
750.00,0.1625
749.50,0.1584
749.00,0.1546
748.50,0.1512
748.00,0.1480
747.50,0.1451
747.00,0.1425
746.50,0.1402
746.00,0.1381
745.50,0.1361
745.00,0.1343
744.50,0.1326
744.00,0.1311
743.50,0.1297
743.00,0.1284
742.50,0.1272
742.00,0.1261
741.50,0.1249
741.00,0.1239
740.50,0.1229
740.00,0.1220
739.50,0.1210
739.00,0.1201
738.50,0.1192
738.00,0.1184
737.50,0.1176
737.00,0.1169
736.50,0.1162
736.00,0.1155
735.50,0.1149
735.00,0.1143
734.50,0.1137
734.00,0.1133
733.50,0.1128
733.00,0.1123
732.50,0.1119
732.00,0.1115
731.50,0.1112
731.00,0.1109
730.50,0.1106
730.00,0.1103
729.50,0.1100
729.00,0.1097
728.50,0.1095
728.00,0.1093
727.50,0.1091
727.00,0.1089
726.50,0.1088
726.00,0.1086
725.50,0.1085
725.00,0.1084
724.50,0.1082
724.00,0.1081
723.50,0.1080
723.00,0.1080
722.50,0.1080
722.00,0.1081
721.50,0.1081
721.00,0.1082
720.50,0.1083
720.00,0.1085
719.50,0.1087
719.00,0.1090
718.50,0.1093
718.00,0.1097
717.50,0.1101
717.00,0.1107
716.50,0.1114
716.00,0.1122
715.50,0.1131
715.00,0.1141
714.50,0.1153
714.00,0.1166
713.50,0.1181
713.00,0.1197
712.50,0.1215
712.00,0.1234
711.50,0.1254
711.00,0.1276
710.50,0.1299
710.00,0.1323
709.50,0.1347
709.00,0.1371
708.50,0.1394
708.00,0.1416
707.50,0.1436
707.00,0.1454
706.50,0.1470
706.00,0.1484
705.50,0.1496
705.00,0.1506
704.50,0.1515
704.00,0.1522
703.50,0.1527
703.00,0.1530
702.50,0.1532
702.00,0.1532
701.50,0.1532
701.00,0.1530
700.50,0.1529
700.00,0.1527
699.50,0.1526
699.00,0.1524
698.50,0.1523
698.00,0.1521
697.50,0.1520
697.00,0.1518
696.50,0.1517
696.00,0.1516
695.50,0.1516
695.00,0.1515
694.50,0.1516
694.00,0.1517
693.50,0.1517
693.00,0.1518
692.50,0.1519
692.00,0.1520
691.50,0.1520
691.00,0.1520
690.50,0.1519
690.00,0.1518
689.50,0.1515
689.00,0.1512
688.50,0.1507
688.00,0.1501
687.50,0.1494
687.00,0.1485
686.50,0.1474
686.00,0.1462
685.50,0.1448
685.00,0.1434
684.50,0.1418
684.00,0.1402
683.50,0.1386
683.00,0.1369
682.50,0.1352
682.00,0.1336
681.50,0.1321
681.00,0.1306
680.50,0.1292
680.00,0.1278
679.50,0.1266
679.00,0.1253
678.50,0.1242
678.00,0.1231
677.50,0.1221
677.00,0.1212
676.50,0.1203
676.00,0.1196
675.50,0.1189
675.00,0.1182
674.50,0.1176
674.00,0.1171
673.50,0.1166
673.00,0.1161
672.50,0.1157
672.00,0.1154
671.50,0.1152
671.00,0.1151
670.50,0.1151
670.00,0.1152
669.50,0.1153
669.00,0.1154
668.50,0.1157
668.00,0.1161
667.50,0.1163
667.00,0.1163
666.50,0.1162
666.00,0.1160
665.50,0.1161
665.00,0.1163
664.50,0.1167
664.00,0.1172
663.50,0.1178
663.00,0.1184
662.50,0.1190
662.00,0.1196
661.50,0.1200
661.00,0.1202
660.50,0.1201
660.00,0.1194
659.50,0.1179
659.00,0.1156
658.50,0.1125
658.00,0.1089
657.50,0.1049
657.00,0.1010
656.50,0.0973
656.00,0.0939
655.50,0.0910
655.00,0.0885
654.50,0.0864
654.00,0.0848
653.50,0.0833
653.00,0.0821
652.50,0.0811
652.00,0.0802
651.50,0.0795
651.00,0.0789
650.50,0.0784
650.00,0.0779
649.50,0.0775
649.00,0.0772
648.50,0.0770
648.00,0.0767
647.50,0.0765
647.00,0.0763
646.50,0.0762
646.00,0.0761
645.50,0.0761
645.00,0.0761
644.50,0.0762
644.00,0.0762
643.50,0.0762
643.00,0.0762
642.50,0.0763
642.00,0.0764
641.50,0.0766
641.00,0.0766
640.50,0.0768
640.00,0.0769
639.50,0.0771
639.00,0.0773
638.50,0.0775
638.00,0.0777
637.50,0.0779
637.00,0.0781
636.50,0.0783
636.00,0.0785
635.50,0.0787
635.00,0.0789
634.50,0.0791
634.00,0.0793
633.50,0.0794
633.00,0.0796
632.50,0.0798
632.00,0.0800
631.50,0.0802
631.00,0.0803
630.50,0.0804
630.00,0.0805
629.50,0.0806
629.00,0.0807
628.50,0.0808
628.00,0.0808
627.50,0.0809
627.00,0.0809
626.50,0.0810
626.00,0.0811
625.50,0.0811
625.00,0.0811
624.50,0.0812
624.00,0.0812
623.50,0.0812
623.00,0.0811
622.50,0.0811
622.00,0.0811
621.50,0.0810
621.00,0.0810
620.50,0.0810
620.00,0.0809
619.50,0.0808
619.00,0.0808
618.50,0.0808
618.00,0.0808
617.50,0.0808
617.00,0.0807
616.50,0.0808
616.00,0.0808
615.50,0.0809
615.00,0.0809
614.50,0.0809
614.00,0.0810
613.50,0.0810
613.00,0.0811
612.50,0.0812
612.00,0.0813
611.50,0.0814
611.00,0.0815
610.50,0.0817
610.00,0.0819
609.50,0.0823
609.00,0.0827
608.50,0.0833
608.00,0.0840
607.50,0.0848
607.00,0.0857
606.50,0.0866
606.00,0.0877
605.50,0.0889
605.00,0.0901
604.50,0.0915
604.00,0.0930
603.50,0.0944
603.00,0.0958
602.50,0.0971
602.00,0.0983
601.50,0.0993
601.00,0.1000
600.50,0.1003
600.00,0.1004
