Created as New Dataset,Sample 012 By USER Date 3 9 2009
cm-1,A
4000.00,0.0340
3999.50,0.0340
3999.00,0.0339
3998.50,0.0339
3998.00,0.0339
3997.50,0.0339
3997.00,0.0339
3996.50,0.0339
3996.00,0.0339
3995.50,0.0339
3995.00,0.0339
3994.50,0.0339
3994.00,0.0339
3993.50,0.0339
3993.00,0.0339
3992.50,0.0339
3992.00,0.0339
3991.50,0.0339
3991.00,0.0339
3990.50,0.0339
3990.00,0.0339
3989.50,0.0338
3989.00,0.0338
3988.50,0.0338
3988.00,0.0338
3987.50,0.0338
3987.00,0.0338
3986.50,0.0338
3986.00,0.0338
3985.50,0.0338
3985.00,0.0337
3984.50,0.0337
3984.00,0.0337
3983.50,0.0337
3983.00,0.0338
3982.50,0.0338
3982.00,0.0338
3981.50,0.0338
3981.00,0.0337
3980.50,0.0337
3980.00,0.0337
3979.50,0.0337
3979.00,0.0337
3978.50,0.0337
3978.00,0.0337
3977.50,0.0337
3977.00,0.0336
3976.50,0.0336
3976.00,0.0336
3975.50,0.0336
3975.00,0.0337
3974.50,0.0337
3974.00,0.0337
3973.50,0.0337
3973.00,0.0337
3972.50,0.0337
3972.00,0.0336
3971.50,0.0336
3971.00,0.0336
3970.50,0.0336
3970.00,0.0336
3969.50,0.0336
3969.00,0.0336
3968.50,0.0336
3968.00,0.0336
3967.50,0.0336
3967.00,0.0336
3966.50,0.0335
3966.00,0.0335
3965.50,0.0335
3965.00,0.0335
3964.50,0.0335
3964.00,0.0335
3963.50,0.0335
3963.00,0.0335
3962.50,0.0335
3962.00,0.0335
3961.50,0.0335
3961.00,0.0335
3960.50,0.0335
3960.00,0.0335
3959.50,0.0335
3959.00,0.0335
3958.50,0.0335
3958.00,0.0335
3957.50,0.0335
3957.00,0.0335
3956.50,0.0335
3956.00,0.0335
3955.50,0.0335
3955.00,0.0335
3954.50,0.0335
3954.00,0.0335
3953.50,0.0335
3953.00,0.0335
3952.50,0.0335
3952.00,0.0335
3951.50,0.0335
3951.00,0.0335
3950.50,0.0335
3950.00,0.0335
3949.50,0.0335
3949.00,0.0334
3948.50,0.0333
3948.00,0.0333
3947.50,0.0333
3947.00,0.0333
3946.50,0.0333
3946.00,0.0333
3945.50,0.0334
3945.00,0.0334
3944.50,0.0334
3944.00,0.0334
3943.50,0.0335
3943.00,0.0335
3942.50,0.0335
3942.00,0.0335
3941.50,0.0335
3941.00,0.0334
3940.50,0.0334
3940.00,0.0334
3939.50,0.0334
3939.00,0.0334
3938.50,0.0334
3938.00,0.0334
3937.50,0.0334
3937.00,0.0334
3936.50,0.0333
3936.00,0.0333
3935.50,0.0333
3935.00,0.0333
3934.50,0.0333
3934.00,0.0332
3933.50,0.0331
3933.00,0.0331
3932.50,0.0331
3932.00,0.0331
3931.50,0.0332
3931.00,0.0333
3930.50,0.0334
3930.00,0.0334
3929.50,0.0334
3929.00,0.0334
3928.50,0.0334
3928.00,0.0333
3927.50,0.0333
3927.00,0.0334
3926.50,0.0334
3926.00,0.0335
3925.50,0.0336
3925.00,0.0336
3924.50,0.0336
3924.00,0.0335
3923.50,0.0335
3923.00,0.0334
3922.50,0.0333
3922.00,0.0333
3921.50,0.0333
3921.00,0.0333
3920.50,0.0333
3920.00,0.0333
3919.50,0.0332
3919.00,0.0332
3918.50,0.0331
3918.00,0.0330
3917.50,0.0330
3917.00,0.0331
3916.50,0.0332
3916.00,0.0333
3915.50,0.0333
3915.00,0.0333
3914.50,0.0333
3914.00,0.0333
3913.50,0.0333
3913.00,0.0333
3912.50,0.0333
3912.00,0.0334
3911.50,0.0334
3911.00,0.0333
3910.50,0.0333
3910.00,0.0333
3909.50,0.0333
3909.00,0.0333
3908.50,0.0334
3908.00,0.0334
3907.50,0.0334
3907.00,0.0334
3906.50,0.0335
3906.00,0.0336
3905.50,0.0337
3905.00,0.0337
3904.50,0.0336
3904.00,0.0334
3903.50,0.0332
3903.00,0.0331
3902.50,0.0330
3902.00,0.0329
3901.50,0.0329
3901.00,0.0330
3900.50,0.0331
3900.00,0.0333
3899.50,0.0335
3899.00,0.0336
3898.50,0.0336
3898.00,0.0336
3897.50,0.0336
3897.00,0.0335
3896.50,0.0334
3896.00,0.0334
3895.50,0.0334
3895.00,0.0334
3894.50,0.0335
3894.00,0.0335
3893.50,0.0336
3893.00,0.0337
3892.50,0.0337
3892.00,0.0338
3891.50,0.0338
3891.00,0.0338
3890.50,0.0337
3890.00,0.0336
3889.50,0.0335
3889.00,0.0334
3888.50,0.0333
3888.00,0.0333
3887.50,0.0333
3887.00,0.0332
3886.50,0.0332
3886.00,0.0331
3885.50,0.0332
3885.00,0.0333
3884.50,0.0334
3884.00,0.0335
3883.50,0.0335
3883.00,0.0335
3882.50,0.0335
3882.00,0.0335
3881.50,0.0336
3881.00,0.0336
3880.50,0.0336
3880.00,0.0336
3879.50,0.0335
3879.00,0.0335
3878.50,0.0335
3878.00,0.0335
3877.50,0.0335
3877.00,0.0335
3876.50,0.0335
3876.00,0.0335
3875.50,0.0336
3875.00,0.0337
3874.50,0.0337
3874.00,0.0337
3873.50,0.0337
3873.00,0.0337
3872.50,0.0337
3872.00,0.0337
3871.50,0.0337
3871.00,0.0336
3870.50,0.0336
3870.00,0.0336
3869.50,0.0336
3869.00,0.0336
3868.50,0.0336
3868.00,0.0336
3867.50,0.0336
3867.00,0.0337
3866.50,0.0337
3866.00,0.0338
3865.50,0.0339
3865.00,0.0339
3864.50,0.0338
3864.00,0.0338
3863.50,0.0338
3863.00,0.0339
3862.50,0.0339
3862.00,0.0339
3861.50,0.0339
3861.00,0.0338
3860.50,0.0338
3860.00,0.0337
3859.50,0.0337
3859.00,0.0336
3858.50,0.0337
3858.00,0.0338
3857.50,0.0340
3857.00,0.0342
3856.50,0.0344
3856.00,0.0346
3855.50,0.0349
3855.00,0.0352
3854.50,0.0354
3854.00,0.0353
3853.50,0.0351
3853.00,0.0349
3852.50,0.0347
3852.00,0.0345
3851.50,0.0344
3851.00,0.0344
3850.50,0.0343
3850.00,0.0343
3849.50,0.0343
3849.00,0.0343
3848.50,0.0343
3848.00,0.0343
3847.50,0.0343
3847.00,0.0343
3846.50,0.0344
3846.00,0.0345
3845.50,0.0346
3845.00,0.0347
3844.50,0.0348
3844.00,0.0348
3843.50,0.0348
3843.00,0.0348
3842.50,0.0348
3842.00,0.0348
3841.50,0.0348
3841.00,0.0349
3840.50,0.0350
3840.00,0.0350
3839.50,0.0351
3839.00,0.0352
3838.50,0.0353
3838.00,0.0353
3837.50,0.0354
3837.00,0.0354
3836.50,0.0354
3836.00,0.0355
3835.50,0.0355
3835.00,0.0356
3834.50,0.0356
3834.00,0.0356
3833.50,0.0356
3833.00,0.0356
3832.50,0.0356
3832.00,0.0356
3831.50,0.0356
3831.00,0.0356
3830.50,0.0356
3830.00,0.0356
3829.50,0.0356
3829.00,0.0356
3828.50,0.0356
3828.00,0.0356
3827.50,0.0357
3827.00,0.0357
3826.50,0.0358
3826.00,0.0357
3825.50,0.0357
3825.00,0.0357
3824.50,0.0357
3824.00,0.0357
3823.50,0.0358
3823.00,0.0358
3822.50,0.0358
3822.00,0.0358
3821.50,0.0358
3821.00,0.0360
3820.50,0.0360
3820.00,0.0361
3819.50,0.0360
3819.00,0.0360
3818.50,0.0360
3818.00,0.0359
3817.50,0.0359
3817.00,0.0359
3816.50,0.0359
3816.00,0.0360
3815.50,0.0361
3815.00,0.0361
3814.50,0.0361
3814.00,0.0361
3813.50,0.0362
3813.00,0.0362
3812.50,0.0362
3812.00,0.0362
3811.50,0.0361
3811.00,0.0361
3810.50,0.0361
3810.00,0.0361
3809.50,0.0362
3809.00,0.0363
3808.50,0.0364
3808.00,0.0365
3807.50,0.0366
3807.00,0.0366
3806.50,0.0365
3806.00,0.0364
3805.50,0.0364
3805.00,0.0364
3804.50,0.0363
3804.00,0.0364
3803.50,0.0364
3803.00,0.0365
3802.50,0.0366
3802.00,0.0368
3801.50,0.0370
3801.00,0.0371
3800.50,0.0371
3800.00,0.0371
3799.50,0.0370
3799.00,0.0370
3798.50,0.0370
3798.00,0.0370
3797.50,0.0370
3797.00,0.0369
3796.50,0.0370
3796.00,0.0370
3795.50,0.0371
3795.00,0.0372
3794.50,0.0372
3794.00,0.0373
3793.50,0.0373
3793.00,0.0374
3792.50,0.0374
3792.00,0.0375
3791.50,0.0375
3791.00,0.0375
3790.50,0.0376
3790.00,0.0376
3789.50,0.0377
3789.00,0.0378
3788.50,0.0379
3788.00,0.0380
3787.50,0.0380
3787.00,0.0381
3786.50,0.0381
3786.00,0.0382
3785.50,0.0383
3785.00,0.0384
3784.50,0.0385
3784.00,0.0385
3783.50,0.0386
3783.00,0.0386
3782.50,0.0387
3782.00,0.0387
3781.50,0.0388
3781.00,0.0388
3780.50,0.0389
3780.00,0.0389
3779.50,0.0390
3779.00,0.0391
3778.50,0.0392
3778.00,0.0393
3777.50,0.0394
3777.00,0.0394
3776.50,0.0395
3776.00,0.0395
3775.50,0.0395
3775.00,0.0396
3774.50,0.0396
3774.00,0.0397
3773.50,0.0397
3773.00,0.0398
3772.50,0.0399
3772.00,0.0400
3771.50,0.0400
3771.00,0.0400
3770.50,0.0400
3770.00,0.0400
3769.50,0.0400
3769.00,0.0401
3768.50,0.0401
3768.00,0.0402
3767.50,0.0402
3767.00,0.0402
3766.50,0.0402
3766.00,0.0403
3765.50,0.0403
3765.00,0.0403
3764.50,0.0404
3764.00,0.0404
3763.50,0.0404
3763.00,0.0404
3762.50,0.0405
3762.00,0.0405
3761.50,0.0405
3761.00,0.0404
3760.50,0.0404
3760.00,0.0404
3759.50,0.0405
3759.00,0.0405
3758.50,0.0406
3758.00,0.0406
3757.50,0.0406
3757.00,0.0406
3756.50,0.0405
3756.00,0.0404
3755.50,0.0404
3755.00,0.0404
3754.50,0.0404
3754.00,0.0404
3753.50,0.0403
3753.00,0.0403
3752.50,0.0403
3752.00,0.0403
3751.50,0.0403
3751.00,0.0403
3750.50,0.0403
3750.00,0.0403
3749.50,0.0402
3749.00,0.0402
3748.50,0.0402
3748.00,0.0401
3747.50,0.0400
3747.00,0.0399
3746.50,0.0399
3746.00,0.0398
3745.50,0.0398
3745.00,0.0398
3744.50,0.0399
3744.00,0.0400
3743.50,0.0400
3743.00,0.0399
3742.50,0.0397
3742.00,0.0397
3741.50,0.0396
3741.00,0.0394
3740.50,0.0392
3740.00,0.0391
3739.50,0.0390
3739.00,0.0390
3738.50,0.0389
3738.00,0.0389
3737.50,0.0389
3737.00,0.0389
3736.50,0.0389
3736.00,0.0390
3735.50,0.0392
3735.00,0.0393
3734.50,0.0394
3734.00,0.0394
3733.50,0.0395
3733.00,0.0396
3732.50,0.0397
3732.00,0.0398
3731.50,0.0398
3731.00,0.0398
3730.50,0.0399
3730.00,0.0399
3729.50,0.0399
3729.00,0.0400
3728.50,0.0400
3728.00,0.0400
3727.50,0.0400
3727.00,0.0401
3726.50,0.0401
3726.00,0.0402
3725.50,0.0404
3725.00,0.0405
3724.50,0.0406
3724.00,0.0407
3723.50,0.0408
3723.00,0.0408
3722.50,0.0409
3722.00,0.0410
3721.50,0.0411
3721.00,0.0412
3720.50,0.0413
3720.00,0.0414
3719.50,0.0415
3719.00,0.0416
3718.50,0.0417
3718.00,0.0418
3717.50,0.0418
3717.00,0.0419
3716.50,0.0420
3716.00,0.0420
3715.50,0.0421
3715.00,0.0422
3714.50,0.0423
3714.00,0.0424
3713.50,0.0425
3713.00,0.0425
3712.50,0.0426
3712.00,0.0428
3711.50,0.0431
3711.00,0.0433
3710.50,0.0435
3710.00,0.0436
3709.50,0.0436
3709.00,0.0437
3708.50,0.0437
3708.00,0.0439
3707.50,0.0440
3707.00,0.0441
3706.50,0.0441
3706.00,0.0442
3705.50,0.0443
3705.00,0.0444
3704.50,0.0445
3704.00,0.0446
3703.50,0.0446
3703.00,0.0447
3702.50,0.0448
3702.00,0.0449
3701.50,0.0450
3701.00,0.0450
3700.50,0.0449
3700.00,0.0449
3699.50,0.0448
3699.00,0.0448
3698.50,0.0447
3698.00,0.0447
3697.50,0.0447
3697.00,0.0446
3696.50,0.0446
3696.00,0.0445
3695.50,0.0444
3695.00,0.0444
3694.50,0.0444
3694.00,0.0444
3693.50,0.0443
3693.00,0.0442
3692.50,0.0441
3692.00,0.0440
3691.50,0.0440
3691.00,0.0439
3690.50,0.0439
3690.00,0.0439
3689.50,0.0438
3689.00,0.0436
3688.50,0.0434
3688.00,0.0432
3687.50,0.0431
3687.00,0.0431
3686.50,0.0430
3686.00,0.0430
3685.50,0.0429
3685.00,0.0429
3684.50,0.0428
3684.00,0.0427
3683.50,0.0427
3683.00,0.0426
3682.50,0.0425
3682.00,0.0424
3681.50,0.0424
3681.00,0.0424
3680.50,0.0424
3680.00,0.0424
3679.50,0.0423
3679.00,0.0422
3678.50,0.0422
3678.00,0.0422
3677.50,0.0422
3677.00,0.0421
3676.50,0.0419
3676.00,0.0418
3675.50,0.0418
3675.00,0.0420
3674.50,0.0421
3674.00,0.0422
3673.50,0.0422
3673.00,0.0421
3672.50,0.0421
3672.00,0.0421
3671.50,0.0421
3671.00,0.0422
3670.50,0.0423
3670.00,0.0424
3669.50,0.0424
3669.00,0.0425
3668.50,0.0425
3668.00,0.0426
3667.50,0.0426
3667.00,0.0426
3666.50,0.0426
3666.00,0.0426
3665.50,0.0426
3665.00,0.0426
3664.50,0.0426
3664.00,0.0427
3663.50,0.0428
3663.00,0.0428
3662.50,0.0429
3662.00,0.0429
3661.50,0.0430
3661.00,0.0430
3660.50,0.0430
3660.00,0.0431
3659.50,0.0431
3659.00,0.0432
3658.50,0.0433
3658.00,0.0434
3657.50,0.0435
3657.00,0.0435
3656.50,0.0436
3656.00,0.0437
3655.50,0.0438
3655.00,0.0438
3654.50,0.0439
3654.00,0.0439
3653.50,0.0440
3653.00,0.0440
3652.50,0.0441
3652.00,0.0441
3651.50,0.0440
3651.00,0.0440
3650.50,0.0440
3650.00,0.0441
3649.50,0.0443
3649.00,0.0444
3648.50,0.0444
3648.00,0.0445
3647.50,0.0446
3647.00,0.0447
3646.50,0.0448
3646.00,0.0448
3645.50,0.0448
3645.00,0.0448
3644.50,0.0448
3644.00,0.0449
3643.50,0.0450
3643.00,0.0450
3642.50,0.0451
3642.00,0.0451
3641.50,0.0451
3641.00,0.0450
3640.50,0.0450
3640.00,0.0450
3639.50,0.0450
3639.00,0.0450
3638.50,0.0449
3638.00,0.0448
3637.50,0.0447
3637.00,0.0446
3636.50,0.0445
3636.00,0.0445
3635.50,0.0445
3635.00,0.0445
3634.50,0.0445
3634.00,0.0445
3633.50,0.0444
3633.00,0.0444
3632.50,0.0443
3632.00,0.0443
3631.50,0.0443
3631.00,0.0443
3630.50,0.0442
3630.00,0.0441
3629.50,0.0440
3629.00,0.0439
3628.50,0.0439
3628.00,0.0439
3627.50,0.0439
3627.00,0.0439
3626.50,0.0439
3626.00,0.0438
3625.50,0.0437
3625.00,0.0437
3624.50,0.0436
3624.00,0.0436
3623.50,0.0436
3623.00,0.0436
3622.50,0.0436
3622.00,0.0437
3621.50,0.0438
3621.00,0.0439
3620.50,0.0440
3620.00,0.0441
3619.50,0.0440
3619.00,0.0440
3618.50,0.0439
3618.00,0.0438
3617.50,0.0437
3617.00,0.0436
3616.50,0.0435
3616.00,0.0435
3615.50,0.0435
3615.00,0.0435
3614.50,0.0435
3614.00,0.0435
3613.50,0.0435
3613.00,0.0435
3612.50,0.0436
3612.00,0.0436
3611.50,0.0435
3611.00,0.0435
3610.50,0.0435
3610.00,0.0434
3609.50,0.0433
3609.00,0.0433
3608.50,0.0433
3608.00,0.0435
3607.50,0.0436
3607.00,0.0436
3606.50,0.0436
3606.00,0.0437
3605.50,0.0437
3605.00,0.0438
3604.50,0.0438
3604.00,0.0438
3603.50,0.0438
3603.00,0.0438
3602.50,0.0439
3602.00,0.0439
3601.50,0.0439
3601.00,0.0439
3600.50,0.0439
3600.00,0.0439
3599.50,0.0439
3599.00,0.0439
3598.50,0.0439
3598.00,0.0439
3597.50,0.0439
3597.00,0.0439
3596.50,0.0439
3596.00,0.0439
3595.50,0.0439
3595.00,0.0439
3594.50,0.0439
3594.00,0.0439
3593.50,0.0440
3593.00,0.0439
3592.50,0.0439
3592.00,0.0438
3591.50,0.0438
3591.00,0.0438
3590.50,0.0437
3590.00,0.0436
3589.50,0.0436
3589.00,0.0435
3588.50,0.0435
3588.00,0.0436
3587.50,0.0437
3587.00,0.0436
3586.50,0.0435
3586.00,0.0435
3585.50,0.0435
3585.00,0.0435
3584.50,0.0435
3584.00,0.0435
3583.50,0.0435
3583.00,0.0434
3582.50,0.0434
3582.00,0.0433
3581.50,0.0433
3581.00,0.0434
3580.50,0.0434
3580.00,0.0434
3579.50,0.0433
3579.00,0.0433
3578.50,0.0433
3578.00,0.0433
3577.50,0.0432
3577.00,0.0431
3576.50,0.0431
3576.00,0.0431
3575.50,0.0430
3575.00,0.0430
3574.50,0.0429
3574.00,0.0429
3573.50,0.0428
3573.00,0.0428
3572.50,0.0427
3572.00,0.0427
3571.50,0.0426
3571.00,0.0425
3570.50,0.0424
3570.00,0.0424
3569.50,0.0423
3569.00,0.0422
3568.50,0.0421
3568.00,0.0419
3567.50,0.0419
3567.00,0.0419
3566.50,0.0420
3566.00,0.0421
3565.50,0.0422
3565.00,0.0422
3564.50,0.0422
3564.00,0.0422
3563.50,0.0422
3563.00,0.0421
3562.50,0.0420
3562.00,0.0420
3561.50,0.0419
3561.00,0.0420
3560.50,0.0420
3560.00,0.0420
3559.50,0.0420
3559.00,0.0419
3558.50,0.0419
3558.00,0.0419
3557.50,0.0418
3557.00,0.0418
3556.50,0.0417
3556.00,0.0417
3555.50,0.0417
3555.00,0.0416
3554.50,0.0416
3554.00,0.0416
3553.50,0.0416
3553.00,0.0416
3552.50,0.0416
3552.00,0.0415
3551.50,0.0415
3551.00,0.0415
3550.50,0.0415
3550.00,0.0415
3549.50,0.0414
3549.00,0.0414
3548.50,0.0413
3548.00,0.0412
3547.50,0.0411
3547.00,0.0411
3546.50,0.0410
3546.00,0.0410
3545.50,0.0410
3545.00,0.0411
3544.50,0.0412
3544.00,0.0412
3543.50,0.0412
3543.00,0.0412
3542.50,0.0412
3542.00,0.0412
3541.50,0.0412
3541.00,0.0413
3540.50,0.0413
3540.00,0.0413
3539.50,0.0413
3539.00,0.0413
3538.50,0.0412
3538.00,0.0412
3537.50,0.0412
3537.00,0.0411
3536.50,0.0411
3536.00,0.0411
3535.50,0.0412
3535.00,0.0412
3534.50,0.0412
3534.00,0.0411
3533.50,0.0411
3533.00,0.0411
3532.50,0.0411
3532.00,0.0411
3531.50,0.0411
3531.00,0.0411
3530.50,0.0411
3530.00,0.0411
3529.50,0.0411
3529.00,0.0411
3528.50,0.0411
3528.00,0.0411
3527.50,0.0410
3527.00,0.0410
3526.50,0.0409
3526.00,0.0408
3525.50,0.0408
3525.00,0.0407
3524.50,0.0407
3524.00,0.0407
3523.50,0.0407
3523.00,0.0408
3522.50,0.0408
3522.00,0.0409
3521.50,0.0409
3521.00,0.0409
3520.50,0.0409
3520.00,0.0409
3519.50,0.0408
3519.00,0.0408
3518.50,0.0408
3518.00,0.0408
3517.50,0.0407
3517.00,0.0407
3516.50,0.0407
3516.00,0.0407
3515.50,0.0407
3515.00,0.0406
3514.50,0.0405
3514.00,0.0405
3513.50,0.0405
3513.00,0.0405
3512.50,0.0405
3512.00,0.0405
3511.50,0.0405
3511.00,0.0405
3510.50,0.0405
3510.00,0.0404
3509.50,0.0404
3509.00,0.0404
3508.50,0.0404
3508.00,0.0404
3507.50,0.0404
3507.00,0.0403
3506.50,0.0403
3506.00,0.0403
3505.50,0.0403
3505.00,0.0402
3504.50,0.0401
3504.00,0.0401
3503.50,0.0400
3503.00,0.0400
3502.50,0.0400
3502.00,0.0400
3501.50,0.0401
3501.00,0.0401
3500.50,0.0401
3500.00,0.0401
3499.50,0.0400
3499.00,0.0400
3498.50,0.0399
3498.00,0.0399
3497.50,0.0399
3497.00,0.0399
3496.50,0.0399
3496.00,0.0399
3495.50,0.0399
3495.00,0.0399
3494.50,0.0399
3494.00,0.0398
3493.50,0.0398
3493.00,0.0398
3492.50,0.0398
3492.00,0.0398
3491.50,0.0398
3491.00,0.0397
3490.50,0.0397
3490.00,0.0397
3489.50,0.0397
3489.00,0.0396
3488.50,0.0396
3488.00,0.0396
3487.50,0.0395
3487.00,0.0395
3486.50,0.0395
3486.00,0.0395
3485.50,0.0395
3485.00,0.0395
3484.50,0.0395
3484.00,0.0395
3483.50,0.0394
3483.00,0.0394
3482.50,0.0394
3482.00,0.0394
3481.50,0.0393
3481.00,0.0393
3480.50,0.0392
3480.00,0.0391
3479.50,0.0391
3479.00,0.0392
3478.50,0.0392
3478.00,0.0392
3477.50,0.0392
3477.00,0.0392
3476.50,0.0392
3476.00,0.0392
3475.50,0.0392
3475.00,0.0391
3474.50,0.0391
3474.00,0.0391
3473.50,0.0391
3473.00,0.0390
3472.50,0.0390
3472.00,0.0390
3471.50,0.0389
3471.00,0.0389
3470.50,0.0388
3470.00,0.0387
3469.50,0.0386
3469.00,0.0386
3468.50,0.0386
3468.00,0.0386
3467.50,0.0386
3467.00,0.0386
3466.50,0.0386
3466.00,0.0386
3465.50,0.0386
3465.00,0.0386
3464.50,0.0386
3464.00,0.0386
3463.50,0.0386
3463.00,0.0386
3462.50,0.0386
3462.00,0.0386
3461.50,0.0385
3461.00,0.0385
3460.50,0.0384
3460.00,0.0384
3459.50,0.0384
3459.00,0.0384
3458.50,0.0384
3458.00,0.0384
3457.50,0.0384
3457.00,0.0384
3456.50,0.0384
3456.00,0.0383
3455.50,0.0383
3455.00,0.0383
3454.50,0.0383
3454.00,0.0382
3453.50,0.0382
3453.00,0.0382
3452.50,0.0381
3452.00,0.0381
3451.50,0.0381
3451.00,0.0381
3450.50,0.0381
3450.00,0.0380
3449.50,0.0380
3449.00,0.0380
3448.50,0.0380
3448.00,0.0380
3447.50,0.0380
3447.00,0.0379
3446.50,0.0379
3446.00,0.0378
3445.50,0.0378
3445.00,0.0378
3444.50,0.0378
3444.00,0.0378
3443.50,0.0378
3443.00,0.0377
3442.50,0.0377
3442.00,0.0377
3441.50,0.0377
3441.00,0.0377
3440.50,0.0377
3440.00,0.0376
3439.50,0.0376
3439.00,0.0375
3438.50,0.0375
3438.00,0.0374
3437.50,0.0374
3437.00,0.0374
3436.50,0.0373
3436.00,0.0373
3435.50,0.0373
3435.00,0.0372
3434.50,0.0373
3434.00,0.0373
3433.50,0.0373
3433.00,0.0373
3432.50,0.0373
3432.00,0.0373
3431.50,0.0372
3431.00,0.0372
3430.50,0.0371
3430.00,0.0371
3429.50,0.0372
3429.00,0.0372
3428.50,0.0372
3428.00,0.0372
3427.50,0.0372
3427.00,0.0372
3426.50,0.0372
3426.00,0.0371
3425.50,0.0371
3425.00,0.0371
3424.50,0.0371
3424.00,0.0371
3423.50,0.0371
3423.00,0.0370
3422.50,0.0370
3422.00,0.0370
3421.50,0.0370
3421.00,0.0370
3420.50,0.0370
3420.00,0.0370
3419.50,0.0370
3419.00,0.0370
3418.50,0.0370
3418.00,0.0369
3417.50,0.0369
3417.00,0.0369
3416.50,0.0369
3416.00,0.0369
3415.50,0.0368
3415.00,0.0368
3414.50,0.0368
3414.00,0.0367
3413.50,0.0367
3413.00,0.0367
3412.50,0.0367
3412.00,0.0367
3411.50,0.0367
3411.00,0.0367
3410.50,0.0367
3410.00,0.0366
3409.50,0.0366
3409.00,0.0366
3408.50,0.0366
3408.00,0.0366
3407.50,0.0366
3407.00,0.0366
3406.50,0.0366
3406.00,0.0366
3405.50,0.0366
3405.00,0.0366
3404.50,0.0365
3404.00,0.0365
3403.50,0.0365
3403.00,0.0364
3402.50,0.0363
3402.00,0.0362
3401.50,0.0362
3401.00,0.0361
3400.50,0.0361
3400.00,0.0362
3399.50,0.0362
3399.00,0.0363
3398.50,0.0363
3398.00,0.0364
3397.50,0.0364
3397.00,0.0364
3396.50,0.0364
3396.00,0.0364
3395.50,0.0363
3395.00,0.0363
3394.50,0.0363
3394.00,0.0362
3393.50,0.0362
3393.00,0.0361
3392.50,0.0360
3392.00,0.0360
3391.50,0.0360
3391.00,0.0361
3390.50,0.0361
3390.00,0.0362
3389.50,0.0362
3389.00,0.0362
3388.50,0.0362
3388.00,0.0362
3387.50,0.0362
3387.00,0.0362
3386.50,0.0362
3386.00,0.0362
3385.50,0.0362
3385.00,0.0362
3384.50,0.0362
3384.00,0.0362
3383.50,0.0362
3383.00,0.0362
3382.50,0.0362
3382.00,0.0361
3381.50,0.0361
3381.00,0.0361
3380.50,0.0361
3380.00,0.0361
3379.50,0.0361
3379.00,0.0361
3378.50,0.0361
3378.00,0.0361
3377.50,0.0360
3377.00,0.0360
3376.50,0.0360
3376.00,0.0360
3375.50,0.0360
3375.00,0.0360
3374.50,0.0360
3374.00,0.0360
3373.50,0.0360
3373.00,0.0360
3372.50,0.0360
3372.00,0.0360
3371.50,0.0359
3371.00,0.0358
3370.50,0.0358
3370.00,0.0357
3369.50,0.0357
3369.00,0.0357
3368.50,0.0358
3368.00,0.0358
3367.50,0.0358
3367.00,0.0358
3366.50,0.0358
3366.00,0.0359
3365.50,0.0359
3365.00,0.0359
3364.50,0.0359
3364.00,0.0359
3363.50,0.0360
3363.00,0.0360
3362.50,0.0359
3362.00,0.0359
3361.50,0.0359
3361.00,0.0359
3360.50,0.0359
3360.00,0.0359
3359.50,0.0359
3359.00,0.0359
3358.50,0.0359
3358.00,0.0359
3357.50,0.0359
3357.00,0.0359
3356.50,0.0359
3356.00,0.0359
3355.50,0.0359
3355.00,0.0359
3354.50,0.0359
3354.00,0.0359
3353.50,0.0359
3353.00,0.0359
3352.50,0.0358
3352.00,0.0357
3351.50,0.0357
3351.00,0.0356
3350.50,0.0357
3350.00,0.0357
3349.50,0.0358
3349.00,0.0358
3348.50,0.0358
3348.00,0.0358
3347.50,0.0358
3347.00,0.0358
3346.50,0.0358
3346.00,0.0358
3345.50,0.0358
3345.00,0.0358
3344.50,0.0357
3344.00,0.0357
3343.50,0.0357
3343.00,0.0357
3342.50,0.0357
3342.00,0.0357
3341.50,0.0357
3341.00,0.0357
3340.50,0.0357
3340.00,0.0356
3339.50,0.0356
3339.00,0.0355
3338.50,0.0355
3338.00,0.0356
3337.50,0.0356
3337.00,0.0357
3336.50,0.0357
3336.00,0.0357
3335.50,0.0357
3335.00,0.0357
3334.50,0.0357
3334.00,0.0357
3333.50,0.0357
3333.00,0.0357
3332.50,0.0357
3332.00,0.0357
3331.50,0.0357
3331.00,0.0357
3330.50,0.0356
3330.00,0.0356
3329.50,0.0356
3329.00,0.0356
3328.50,0.0356
3328.00,0.0356
3327.50,0.0356
3327.00,0.0355
3326.50,0.0355
3326.00,0.0354
3325.50,0.0354
3325.00,0.0355
3324.50,0.0355
3324.00,0.0355
3323.50,0.0355
3323.00,0.0355
3322.50,0.0355
3322.00,0.0355
3321.50,0.0355
3321.00,0.0355
3320.50,0.0355
3320.00,0.0355
3319.50,0.0355
3319.00,0.0355
3318.50,0.0355
3318.00,0.0355
3317.50,0.0355
3317.00,0.0355
3316.50,0.0355
3316.00,0.0355
3315.50,0.0355
3315.00,0.0355
3314.50,0.0355
3314.00,0.0355
3313.50,0.0355
3313.00,0.0355
3312.50,0.0355
3312.00,0.0355
3311.50,0.0354
3311.00,0.0354
3310.50,0.0353
3310.00,0.0353
3309.50,0.0352
3309.00,0.0352
3308.50,0.0352
3308.00,0.0352
3307.50,0.0352
3307.00,0.0351
3306.50,0.0351
3306.00,0.0351
3305.50,0.0351
3305.00,0.0351
3304.50,0.0352
3304.00,0.0352
3303.50,0.0353
3303.00,0.0354
3302.50,0.0354
3302.00,0.0354
3301.50,0.0354
3301.00,0.0354
3300.50,0.0354
3300.00,0.0354
3299.50,0.0354
3299.00,0.0354
3298.50,0.0353
3298.00,0.0353
3297.50,0.0353
3297.00,0.0353
3296.50,0.0352
3296.00,0.0352
3295.50,0.0352
3295.00,0.0352
3294.50,0.0352
3294.00,0.0352
3293.50,0.0352
3293.00,0.0352
3292.50,0.0351
3292.00,0.0351
3291.50,0.0352
3291.00,0.0352
3290.50,0.0353
3290.00,0.0353
3289.50,0.0353
3289.00,0.0353
3288.50,0.0353
3288.00,0.0353
3287.50,0.0353
3287.00,0.0353
3286.50,0.0353
3286.00,0.0353
3285.50,0.0353
3285.00,0.0353
3284.50,0.0353
3284.00,0.0353
3283.50,0.0353
3283.00,0.0353
3282.50,0.0353
3282.00,0.0353
3281.50,0.0353
3281.00,0.0353
3280.50,0.0353
3280.00,0.0353
3279.50,0.0353
3279.00,0.0353
3278.50,0.0353
3278.00,0.0353
3277.50,0.0353
3277.00,0.0353
3276.50,0.0353
3276.00,0.0352
3275.50,0.0352
3275.00,0.0352
3274.50,0.0352
3274.00,0.0352
3273.50,0.0352
3273.00,0.0352
3272.50,0.0351
3272.00,0.0351
3271.50,0.0351
3271.00,0.0351
3270.50,0.0351
3270.00,0.0351
3269.50,0.0352
3269.00,0.0353
3268.50,0.0353
3268.00,0.0353
3267.50,0.0354
3267.00,0.0354
3266.50,0.0354
3266.00,0.0354
3265.50,0.0354
3265.00,0.0354
3264.50,0.0354
3264.00,0.0354
3263.50,0.0354
3263.00,0.0354
3262.50,0.0354
3262.00,0.0354
3261.50,0.0354
3261.00,0.0354
3260.50,0.0354
3260.00,0.0354
3259.50,0.0354
3259.00,0.0354
3258.50,0.0354
3258.00,0.0354
3257.50,0.0354
3257.00,0.0354
3256.50,0.0354
3256.00,0.0353
3255.50,0.0353
3255.00,0.0354
3254.50,0.0354
3254.00,0.0354
3253.50,0.0354
3253.00,0.0354
3252.50,0.0355
3252.00,0.0354
3251.50,0.0354
3251.00,0.0355
3250.50,0.0355
3250.00,0.0355
3249.50,0.0355
3249.00,0.0354
3248.50,0.0354
3248.00,0.0353
3247.50,0.0353
3247.00,0.0353
3246.50,0.0354
3246.00,0.0354
3245.50,0.0355
3245.00,0.0355
3244.50,0.0355
3244.00,0.0355
3243.50,0.0355
3243.00,0.0355
3242.50,0.0355
3242.00,0.0355
3241.50,0.0356
3241.00,0.0356
3240.50,0.0356
3240.00,0.0356
3239.50,0.0356
3239.00,0.0356
3238.50,0.0356
3238.00,0.0356
3237.50,0.0356
3237.00,0.0356
3236.50,0.0356
3236.00,0.0356
3235.50,0.0356
3235.00,0.0355
3234.50,0.0355
3234.00,0.0355
3233.50,0.0355
3233.00,0.0355
3232.50,0.0356
3232.00,0.0356
3231.50,0.0357
3231.00,0.0357
3230.50,0.0357
3230.00,0.0357
3229.50,0.0358
3229.00,0.0358
3228.50,0.0358
3228.00,0.0358
3227.50,0.0358
3227.00,0.0358
3226.50,0.0358
3226.00,0.0358
3225.50,0.0358
3225.00,0.0358
3224.50,0.0358
3224.00,0.0358
3223.50,0.0358
3223.00,0.0359
3222.50,0.0359
3222.00,0.0359
3221.50,0.0359
3221.00,0.0359
3220.50,0.0359
3220.00,0.0359
3219.50,0.0359
3219.00,0.0359
3218.50,0.0359
3218.00,0.0359
3217.50,0.0359
3217.00,0.0359
3216.50,0.0359
3216.00,0.0359
3215.50,0.0359
3215.00,0.0359
3214.50,0.0360
3214.00,0.0360
3213.50,0.0360
3213.00,0.0360
3212.50,0.0361
3212.00,0.0361
3211.50,0.0361
3211.00,0.0361
3210.50,0.0361
3210.00,0.0361
3209.50,0.0361
3209.00,0.0361
3208.50,0.0361
3208.00,0.0361
3207.50,0.0362
3207.00,0.0362
3206.50,0.0362
3206.00,0.0362
3205.50,0.0362
3205.00,0.0362
3204.50,0.0362
3204.00,0.0363
3203.50,0.0363
3203.00,0.0363
3202.50,0.0363
3202.00,0.0363
3201.50,0.0363
3201.00,0.0364
3200.50,0.0364
3200.00,0.0364
3199.50,0.0364
3199.00,0.0364
3198.50,0.0364
3198.00,0.0364
3197.50,0.0365
3197.00,0.0365
3196.50,0.0365
3196.00,0.0365
3195.50,0.0365
3195.00,0.0366
3194.50,0.0366
3194.00,0.0366
3193.50,0.0366
3193.00,0.0366
3192.50,0.0367
3192.00,0.0367
3191.50,0.0367
3191.00,0.0367
3190.50,0.0368
3190.00,0.0368
3189.50,0.0368
3189.00,0.0368
3188.50,0.0369
3188.00,0.0369
3187.50,0.0369
3187.00,0.0369
3186.50,0.0370
3186.00,0.0370
3185.50,0.0370
3185.00,0.0370
3184.50,0.0370
3184.00,0.0370
3183.50,0.0370
3183.00,0.0370
3182.50,0.0370
3182.00,0.0370
3181.50,0.0370
3181.00,0.0370
3180.50,0.0370
3180.00,0.0370
3179.50,0.0370
3179.00,0.0370
3178.50,0.0371
3178.00,0.0371
3177.50,0.0371
3177.00,0.0371
3176.50,0.0371
3176.00,0.0371
3175.50,0.0371
3175.00,0.0371
3174.50,0.0371
3174.00,0.0371
3173.50,0.0372
3173.00,0.0372
3172.50,0.0372
3172.00,0.0372
3171.50,0.0372
3171.00,0.0373
3170.50,0.0373
3170.00,0.0373
3169.50,0.0373
3169.00,0.0373
3168.50,0.0373
3168.00,0.0374
3167.50,0.0374
3167.00,0.0374
3166.50,0.0374
3166.00,0.0374
3165.50,0.0375
3165.00,0.0375
3164.50,0.0375
3164.00,0.0375
3163.50,0.0376
3163.00,0.0376
3162.50,0.0376
3162.00,0.0377
3161.50,0.0377
3161.00,0.0377
3160.50,0.0378
3160.00,0.0378
3159.50,0.0378
3159.00,0.0378
3158.50,0.0379
3158.00,0.0379
3157.50,0.0380
3157.00,0.0380
3156.50,0.0380
3156.00,0.0380
3155.50,0.0380
3155.00,0.0381
3154.50,0.0381
3154.00,0.0381
3153.50,0.0380
3153.00,0.0380
3152.50,0.0381
3152.00,0.0381
3151.50,0.0382
3151.00,0.0383
3150.50,0.0384
3150.00,0.0385
3149.50,0.0385
3149.00,0.0386
3148.50,0.0386
3148.00,0.0387
3147.50,0.0387
3147.00,0.0388
3146.50,0.0388
3146.00,0.0389
3145.50,0.0389
3145.00,0.0390
3144.50,0.0390
3144.00,0.0391
3143.50,0.0391
3143.00,0.0392
3142.50,0.0392
3142.00,0.0393
3141.50,0.0393
3141.00,0.0393
3140.50,0.0393
3140.00,0.0393
3139.50,0.0394
3139.00,0.0395
3138.50,0.0396
3138.00,0.0397
3137.50,0.0398
3137.00,0.0399
3136.50,0.0400
3136.00,0.0401
3135.50,0.0402
3135.00,0.0402
3134.50,0.0403
3134.00,0.0404
3133.50,0.0404
3133.00,0.0405
3132.50,0.0406
3132.00,0.0406
3131.50,0.0407
3131.00,0.0408
3130.50,0.0408
3130.00,0.0409
3129.50,0.0410
3129.00,0.0411
3128.50,0.0412
3128.00,0.0413
3127.50,0.0414
3127.00,0.0415
3126.50,0.0415
3126.00,0.0416
3125.50,0.0417
3125.00,0.0418
3124.50,0.0418
3124.00,0.0419
3123.50,0.0420
3123.00,0.0420
3122.50,0.0420
3122.00,0.0420
3121.50,0.0420
3121.00,0.0421
3120.50,0.0421
3120.00,0.0421
3119.50,0.0422
3119.00,0.0423
3118.50,0.0424
3118.00,0.0424
3117.50,0.0425
3117.00,0.0425
3116.50,0.0426
3116.00,0.0427
3115.50,0.0427
3115.00,0.0428
3114.50,0.0429
3114.00,0.0430
3113.50,0.0431
3113.00,0.0432
3112.50,0.0433
3112.00,0.0433
3111.50,0.0433
3111.00,0.0434
3110.50,0.0434
3110.00,0.0434
3109.50,0.0433
3109.00,0.0433
3108.50,0.0434
3108.00,0.0435
3107.50,0.0435
3107.00,0.0436
3106.50,0.0437
3106.00,0.0437
3105.50,0.0437
3105.00,0.0437
3104.50,0.0438
3104.00,0.0438
3103.50,0.0438
3103.00,0.0438
3102.50,0.0438
3102.00,0.0438
3101.50,0.0438
3101.00,0.0438
3100.50,0.0438
3100.00,0.0438
3099.50,0.0439
3099.00,0.0439
3098.50,0.0440
3098.00,0.0440
3097.50,0.0440
3097.00,0.0441
3096.50,0.0441
3096.00,0.0441
3095.50,0.0441
3095.00,0.0441
3094.50,0.0441
3094.00,0.0442
3093.50,0.0442
3093.00,0.0442
3092.50,0.0442
3092.00,0.0442
3091.50,0.0442
3091.00,0.0442
3090.50,0.0442
3090.00,0.0442
3089.50,0.0443
3089.00,0.0444
3088.50,0.0444
3088.00,0.0444
3087.50,0.0445
3087.00,0.0445
3086.50,0.0445
3086.00,0.0445
3085.50,0.0445
3085.00,0.0445
3084.50,0.0445
3084.00,0.0446
3083.50,0.0446
3083.00,0.0447
3082.50,0.0448
3082.00,0.0448
3081.50,0.0448
3081.00,0.0448
3080.50,0.0448
3080.00,0.0449
3079.50,0.0449
3079.00,0.0450
3078.50,0.0450
3078.00,0.0451
3077.50,0.0452
3077.00,0.0453
3076.50,0.0454
3076.00,0.0456
3075.50,0.0457
3075.00,0.0457
3074.50,0.0458
3074.00,0.0459
3073.50,0.0460
3073.00,0.0460
3072.50,0.0461
3072.00,0.0462
3071.50,0.0462
3071.00,0.0463
3070.50,0.0464
3070.00,0.0465
3069.50,0.0465
3069.00,0.0466
3068.50,0.0466
3068.00,0.0466
3067.50,0.0467
3067.00,0.0469
3066.50,0.0470
3066.00,0.0472
3065.50,0.0474
3065.00,0.0475
3064.50,0.0476
3064.00,0.0478
3063.50,0.0479
3063.00,0.0481
3062.50,0.0483
3062.00,0.0485
3061.50,0.0487
3061.00,0.0488
3060.50,0.0490
3060.00,0.0492
3059.50,0.0494
3059.00,0.0496
3058.50,0.0498
3058.00,0.0500
3057.50,0.0502
3057.00,0.0504
3056.50,0.0506
3056.00,0.0508
3055.50,0.0509
3055.00,0.0511
3054.50,0.0512
3054.00,0.0513
3053.50,0.0514
3053.00,0.0514
3052.50,0.0514
3052.00,0.0513
3051.50,0.0512
3051.00,0.0511
3050.50,0.0509
3050.00,0.0508
3049.50,0.0507
3049.00,0.0505
3048.50,0.0503
3048.00,0.0500
3047.50,0.0498
3047.00,0.0495
3046.50,0.0493
3046.00,0.0491
3045.50,0.0489
3045.00,0.0487
3044.50,0.0486
3044.00,0.0485
3043.50,0.0483
3043.00,0.0482
3042.50,0.0481
3042.00,0.0480
3041.50,0.0480
3041.00,0.0480
3040.50,0.0479
3040.00,0.0479
3039.50,0.0479
3039.00,0.0479
3038.50,0.0479
3038.00,0.0479
3037.50,0.0479
3037.00,0.0478
3036.50,0.0478
3036.00,0.0477
3035.50,0.0476
3035.00,0.0476
3034.50,0.0476
3034.00,0.0476
3033.50,0.0476
3033.00,0.0477
3032.50,0.0477
3032.00,0.0478
3031.50,0.0478
3031.00,0.0478
3030.50,0.0479
3030.00,0.0479
3029.50,0.0480
3029.00,0.0481
3028.50,0.0481
3028.00,0.0482
3027.50,0.0483
3027.00,0.0483
3026.50,0.0484
3026.00,0.0485
3025.50,0.0485
3025.00,0.0486
3024.50,0.0487
3024.00,0.0489
3023.50,0.0490
3023.00,0.0492
3022.50,0.0493
3022.00,0.0494
3021.50,0.0496
3021.00,0.0497
3020.50,0.0498
3020.00,0.0500
3019.50,0.0501
3019.00,0.0503
3018.50,0.0504
3018.00,0.0505
3017.50,0.0507
3017.00,0.0508
3016.50,0.0509
3016.00,0.0510
3015.50,0.0511
3015.00,0.0511
3014.50,0.0512
3014.00,0.0513
3013.50,0.0514
3013.00,0.0515
3012.50,0.0516
3012.00,0.0517
3011.50,0.0518
3011.00,0.0519
3010.50,0.0521
3010.00,0.0522
3009.50,0.0524
3009.00,0.0525
3008.50,0.0527
3008.00,0.0528
3007.50,0.0530
3007.00,0.0531
3006.50,0.0533
3006.00,0.0535
3005.50,0.0537
3005.00,0.0539
3004.50,0.0541
3004.00,0.0543
3003.50,0.0546
3003.00,0.0548
3002.50,0.0551
3002.00,0.0555
3001.50,0.0558
3001.00,0.0562
3000.50,0.0566
3000.00,0.0570
2999.50,0.0574
2999.00,0.0579
2998.50,0.0584
2998.00,0.0589
2997.50,0.0595
2997.00,0.0602
2996.50,0.0609
2996.00,0.0616
2995.50,0.0624
2995.00,0.0632
2994.50,0.0640
2994.00,0.0649
2993.50,0.0658
2993.00,0.0668
2992.50,0.0679
2992.00,0.0690
2991.50,0.0703
2991.00,0.0716
2990.50,0.0729
2990.00,0.0744
2989.50,0.0759
2989.00,0.0775
2988.50,0.0792
2988.00,0.0811
2987.50,0.0830
2987.00,0.0850
2986.50,0.0872
2986.00,0.0895
2985.50,0.0919
2985.00,0.0944
2984.50,0.0970
2984.00,0.0997
2983.50,0.1023
2983.00,0.1050
2982.50,0.1081
2982.00,0.1117
2981.50,0.1159
2981.00,0.1206
2980.50,0.1257
2980.00,0.1312
2979.50,0.1370
2979.00,0.1433
2978.50,0.1501
2978.00,0.1573
2977.50,0.1650
2977.00,0.1731
2976.50,0.1818
2976.00,0.1910
2975.50,0.2008
2975.00,0.2112
2974.50,0.2223
2974.00,0.2340
2973.50,0.2465
2973.00,0.2595
2972.50,0.2733
2972.00,0.2876
2971.50,0.3026
2971.00,0.3183
2970.50,0.3348
2970.00,0.3518
2969.50,0.3692
2969.00,0.3868
2968.50,0.4042
2968.00,0.4213
2967.50,0.4379
2967.00,0.4537
2966.50,0.4686
2966.00,0.4821
2965.50,0.4941
2965.00,0.5041
2964.50,0.5120
2964.00,0.5175
2963.50,0.5204
2963.00,0.5206
2962.50,0.5182
2962.00,0.5131
2961.50,0.5055
2961.00,0.4955
2960.50,0.4834
2960.00,0.4696
2959.50,0.4542
2959.00,0.4377
2958.50,0.4204
2958.00,0.4027
2957.50,0.3847
2957.00,0.3668
2956.50,0.3493
2956.00,0.3322
2955.50,0.3157
2955.00,0.2999
2954.50,0.2848
2954.00,0.2705
2953.50,0.2571
2953.00,0.2445
2952.50,0.2328
2952.00,0.2220
2951.50,0.2119
2951.00,0.2025
2950.50,0.1938
2950.00,0.1856
2949.50,0.1779
2949.00,0.1707
2948.50,0.1640
2948.00,0.1577
2947.50,0.1519
2947.00,0.1465
2946.50,0.1415
2946.00,0.1369
2945.50,0.1326
2945.00,0.1285
2944.50,0.1247
2944.00,0.1211
2943.50,0.1179
2943.00,0.1149
2942.50,0.1121
2942.00,0.1095
2941.50,0.1070
2941.00,0.1046
2940.50,0.1024
2940.00,0.1003
2939.50,0.0984
2939.00,0.0965
2938.50,0.0948
2938.00,0.0932
2937.50,0.0917
2937.00,0.0902
2936.50,0.0889
2936.00,0.0877
2935.50,0.0865
2935.00,0.0854
2934.50,0.0843
2934.00,0.0834
2933.50,0.0825
2933.00,0.0816
2932.50,0.0808
2932.00,0.0800
2931.50,0.0793
2931.00,0.0786
2930.50,0.0780
2930.00,0.0775
2929.50,0.0771
2929.00,0.0768
2928.50,0.0765
2928.00,0.0763
2927.50,0.0761
2927.00,0.0759
2926.50,0.0758
2926.00,0.0757
2925.50,0.0756
2925.00,0.0756
2924.50,0.0757
2924.00,0.0758
2923.50,0.0760
2923.00,0.0762
2922.50,0.0764
2922.00,0.0767
2921.50,0.0771
2921.00,0.0774
2920.50,0.0779
2920.00,0.0784
2919.50,0.0789
2919.00,0.0794
2918.50,0.0801
2918.00,0.0807
2917.50,0.0814
2917.00,0.0822
2916.50,0.0830
2916.00,0.0838
2915.50,0.0847
2915.00,0.0856
2914.50,0.0866
2914.00,0.0876
2913.50,0.0888
2913.00,0.0901
2912.50,0.0916
2912.00,0.0931
2911.50,0.0947
2911.00,0.0963
2910.50,0.0980
2910.00,0.0998
2909.50,0.1015
2909.00,0.1032
2908.50,0.1048
2908.00,0.1063
2907.50,0.1076
2907.00,0.1088
2906.50,0.1097
2906.00,0.1104
2905.50,0.1108
2905.00,0.1110
2904.50,0.1108
2904.00,0.1104
2903.50,0.1098
2903.00,0.1089
2902.50,0.1077
2902.00,0.1064
2901.50,0.1049
2901.00,0.1032
2900.50,0.1015
2900.00,0.0996
2899.50,0.0977
2899.00,0.0957
2898.50,0.0938
2898.00,0.0918
2897.50,0.0898
2897.00,0.0879
2896.50,0.0860
2896.00,0.0842
2895.50,0.0825
2895.00,0.0809
2894.50,0.0793
2894.00,0.0778
2893.50,0.0763
2893.00,0.0749
2892.50,0.0736
2892.00,0.0724
2891.50,0.0712
2891.00,0.0701
2890.50,0.0690
2890.00,0.0680
2889.50,0.0671
2889.00,0.0662
2888.50,0.0653
2888.00,0.0646
2887.50,0.0638
2887.00,0.0631
2886.50,0.0625
2886.00,0.0618
2885.50,0.0612
2885.00,0.0606
2884.50,0.0600
2884.00,0.0595
2883.50,0.0589
2883.00,0.0585
2882.50,0.0580
2882.00,0.0577
2881.50,0.0573
2881.00,0.0570
2880.50,0.0566
2880.00,0.0563
2879.50,0.0560
2879.00,0.0557
2878.50,0.0554
2878.00,0.0551
2877.50,0.0548
2877.00,0.0545
2876.50,0.0543
2876.00,0.0540
2875.50,0.0536
2875.00,0.0533
2874.50,0.0530
2874.00,0.0526
2873.50,0.0523
2873.00,0.0521
2872.50,0.0519
2872.00,0.0517
2871.50,0.0515
2871.00,0.0513
2870.50,0.0511
2870.00,0.0509
2869.50,0.0507
2869.00,0.0505
2868.50,0.0503
2868.00,0.0502
2867.50,0.0500
2867.00,0.0499
2866.50,0.0497
2866.00,0.0496
2865.50,0.0495
2865.00,0.0494
2864.50,0.0493
2864.00,0.0493
2863.50,0.0492
2863.00,0.0491
2862.50,0.0491
2862.00,0.0490
2861.50,0.0490
2861.00,0.0489
2860.50,0.0488
2860.00,0.0488
2859.50,0.0488
2859.00,0.0489
2858.50,0.0489
2858.00,0.0489
2857.50,0.0489
2857.00,0.0489
2856.50,0.0490
2856.00,0.0490
2855.50,0.0491
2855.00,0.0491
2854.50,0.0492
2854.00,0.0493
2853.50,0.0494
2853.00,0.0495
2852.50,0.0496
2852.00,0.0498
2851.50,0.0499
2851.00,0.0500
2850.50,0.0501
2850.00,0.0501
2849.50,0.0501
2849.00,0.0499
2848.50,0.0497
2848.00,0.0495
2847.50,0.0492
2847.00,0.0490
2846.50,0.0487
2846.00,0.0484
2845.50,0.0482
2845.00,0.0480
2844.50,0.0477
2844.00,0.0476
2843.50,0.0474
2843.00,0.0472
2842.50,0.0471
2842.00,0.0469
2841.50,0.0468
2841.00,0.0467
2840.50,0.0465
2840.00,0.0464
2839.50,0.0462
2839.00,0.0461
2838.50,0.0460
2838.00,0.0460
2837.50,0.0459
2837.00,0.0459
2836.50,0.0458
2836.00,0.0457
2835.50,0.0456
2835.00,0.0455
2834.50,0.0455
2834.00,0.0454
2833.50,0.0453
2833.00,0.0453
2832.50,0.0452
2832.00,0.0451
2831.50,0.0451
2831.00,0.0450
2830.50,0.0450
2830.00,0.0449
2829.50,0.0448
2829.00,0.0448
2828.50,0.0447
2828.00,0.0447
2827.50,0.0447
2827.00,0.0446
2826.50,0.0446
2826.00,0.0446
2825.50,0.0446
2825.00,0.0446
2824.50,0.0445
2824.00,0.0445
2823.50,0.0445
2823.00,0.0445
2822.50,0.0445
2822.00,0.0445
2821.50,0.0445
2821.00,0.0446
2820.50,0.0446
2820.00,0.0446
2819.50,0.0446
2819.00,0.0447
2818.50,0.0447
2818.00,0.0447
2817.50,0.0447
2817.00,0.0448
2816.50,0.0448
2816.00,0.0448
2815.50,0.0448
2815.00,0.0449
2814.50,0.0449
2814.00,0.0449
2813.50,0.0449
2813.00,0.0449
2812.50,0.0449
2812.00,0.0449
2811.50,0.0449
2811.00,0.0449
2810.50,0.0449
2810.00,0.0449
2809.50,0.0449
2809.00,0.0449
2808.50,0.0449
2808.00,0.0449
2807.50,0.0449
2807.00,0.0449
2806.50,0.0449
2806.00,0.0449
2805.50,0.0448
2805.00,0.0448
2804.50,0.0448
2804.00,0.0448
2803.50,0.0447
2803.00,0.0447
2802.50,0.0447
2802.00,0.0447
2801.50,0.0446
2801.00,0.0446
2800.50,0.0446
2800.00,0.0445
2799.50,0.0445
2799.00,0.0444
2798.50,0.0444
2798.00,0.0443
2797.50,0.0443
2797.00,0.0443
2796.50,0.0442
2796.00,0.0441
2795.50,0.0441
2795.00,0.0440
2794.50,0.0439
2794.00,0.0438
2793.50,0.0437
2793.00,0.0436
2792.50,0.0435
2792.00,0.0433
2791.50,0.0432
2791.00,0.0430
2790.50,0.0428
2790.00,0.0426
2789.50,0.0424
2789.00,0.0422
2788.50,0.0421
2788.00,0.0419
2787.50,0.0417
2787.00,0.0415
2786.50,0.0413
2786.00,0.0411
2785.50,0.0409
2785.00,0.0406
2784.50,0.0404
2784.00,0.0402
2783.50,0.0400
2783.00,0.0398
2782.50,0.0396
2782.00,0.0394
2781.50,0.0392
2781.00,0.0390
2780.50,0.0388
2780.00,0.0386
2779.50,0.0385
2779.00,0.0383
2778.50,0.0382
2778.00,0.0380
2777.50,0.0379
2777.00,0.0377
2776.50,0.0375
2776.00,0.0373
2775.50,0.0372
2775.00,0.0371
2774.50,0.0370
2774.00,0.0369
2773.50,0.0368
2773.00,0.0367
2772.50,0.0366
2772.00,0.0365
2771.50,0.0364
2771.00,0.0363
2770.50,0.0362
2770.00,0.0361
2769.50,0.0360
2769.00,0.0359
2768.50,0.0358
2768.00,0.0358
2767.50,0.0357
2767.00,0.0356
2766.50,0.0355
2766.00,0.0355
2765.50,0.0354
2765.00,0.0353
2764.50,0.0353
2764.00,0.0352
2763.50,0.0351
2763.00,0.0351
2762.50,0.0350
2762.00,0.0350
2761.50,0.0349
2761.00,0.0349
2760.50,0.0348
2760.00,0.0348
2759.50,0.0347
2759.00,0.0347
2758.50,0.0346
2758.00,0.0346
2757.50,0.0345
2757.00,0.0345
2756.50,0.0344
2756.00,0.0344
2755.50,0.0344
2755.00,0.0344
2754.50,0.0343
2754.00,0.0343
2753.50,0.0343
2753.00,0.0342
2752.50,0.0342
2752.00,0.0342
2751.50,0.0341
2751.00,0.0341
2750.50,0.0340
2750.00,0.0340
2749.50,0.0340
2749.00,0.0339
2748.50,0.0339
2748.00,0.0338
2747.50,0.0338
2747.00,0.0338
2746.50,0.0338
2746.00,0.0338
2745.50,0.0338
2745.00,0.0338
2744.50,0.0338
2744.00,0.0337
2743.50,0.0337
2743.00,0.0337
2742.50,0.0337
2742.00,0.0337
2741.50,0.0336
2741.00,0.0336
2740.50,0.0336
2740.00,0.0336
2739.50,0.0335
2739.00,0.0335
2738.50,0.0335
2738.00,0.0334
2737.50,0.0334
2737.00,0.0334
2736.50,0.0334
2736.00,0.0334
2735.50,0.0334
2735.00,0.0334
2734.50,0.0334
2734.00,0.0334
2733.50,0.0333
2733.00,0.0333
2732.50,0.0333
2732.00,0.0333
2731.50,0.0333
2731.00,0.0333
2730.50,0.0333
2730.00,0.0333
2729.50,0.0333
2729.00,0.0332
2728.50,0.0332
2728.00,0.0332
2727.50,0.0331
2727.00,0.0331
2726.50,0.0331
2726.00,0.0331
2725.50,0.0331
2725.00,0.0331
2724.50,0.0331
2724.00,0.0331
2723.50,0.0331
2723.00,0.0331
2722.50,0.0331
2722.00,0.0331
2721.50,0.0331
2721.00,0.0331
2720.50,0.0331
2720.00,0.0331
2719.50,0.0331
2719.00,0.0331
2718.50,0.0331
2718.00,0.0331
2717.50,0.0331
2717.00,0.0331
2716.50,0.0331
2716.00,0.0331
2715.50,0.0331
2715.00,0.0331
2714.50,0.0331
2714.00,0.0331
2713.50,0.0331
2713.00,0.0331
2712.50,0.0331
2712.00,0.0331
2711.50,0.0331
2711.00,0.0331
2710.50,0.0331
2710.00,0.0331
2709.50,0.0331
2709.00,0.0331
2708.50,0.0331
2708.00,0.0331
2707.50,0.0331
2707.00,0.0331
2706.50,0.0331
2706.00,0.0331
2705.50,0.0331
2705.00,0.0331
2704.50,0.0331
2704.00,0.0331
2703.50,0.0330
2703.00,0.0330
2702.50,0.0330
2702.00,0.0330
2701.50,0.0330
2701.00,0.0330
2700.50,0.0330
2700.00,0.0330
2699.50,0.0330
2699.00,0.0329
2698.50,0.0329
2698.00,0.0329
2697.50,0.0329
2697.00,0.0329
2696.50,0.0329
2696.00,0.0329
2695.50,0.0329
2695.00,0.0329
2694.50,0.0329
2694.00,0.0329
2693.50,0.0329
2693.00,0.0329
2692.50,0.0329
2692.00,0.0329
2691.50,0.0329
2691.00,0.0329
2690.50,0.0329
2690.00,0.0329
2689.50,0.0329
2689.00,0.0329
2688.50,0.0329
2688.00,0.0329
2687.50,0.0329
2687.00,0.0329
2686.50,0.0329
2686.00,0.0329
2685.50,0.0330
2685.00,0.0330
2684.50,0.0330
2684.00,0.0330
2683.50,0.0330
2683.00,0.0330
2682.50,0.0330
2682.00,0.0330
2681.50,0.0330
2681.00,0.0331
2680.50,0.0331
2680.00,0.0331
2679.50,0.0332
2679.00,0.0332
2678.50,0.0332
2678.00,0.0332
2677.50,0.0333
2677.00,0.0333
2676.50,0.0333
2676.00,0.0334
2675.50,0.0334
2675.00,0.0335
2674.50,0.0335
2674.00,0.0335
2673.50,0.0335
2673.00,0.0336
2672.50,0.0336
2672.00,0.0337
2671.50,0.0337
2671.00,0.0338
2670.50,0.0338
2670.00,0.0338
2669.50,0.0338
2669.00,0.0339
2668.50,0.0339
2668.00,0.0339
2667.50,0.0340
2667.00,0.0340
2666.50,0.0340
2666.00,0.0340
2665.50,0.0341
2665.00,0.0341
2664.50,0.0341
2664.00,0.0341
2663.50,0.0341
2663.00,0.0341
2662.50,0.0341
2662.00,0.0341
2661.50,0.0341
2661.00,0.0341
2660.50,0.0341
2660.00,0.0341
2659.50,0.0341
2659.00,0.0340
2658.50,0.0340
2658.00,0.0340
2657.50,0.0339
2657.00,0.0339
2656.50,0.0339
2656.00,0.0338
2655.50,0.0338
2655.00,0.0338
2654.50,0.0337
2654.00,0.0337
2653.50,0.0336
2653.00,0.0336
2652.50,0.0335
2652.00,0.0335
2651.50,0.0334
2651.00,0.0333
2650.50,0.0333
2650.00,0.0332
2649.50,0.0332
2649.00,0.0331
2648.50,0.0331
2648.00,0.0330
2647.50,0.0330
2647.00,0.0329
2646.50,0.0329
2646.00,0.0328
2645.50,0.0328
2645.00,0.0327
2644.50,0.0327
2644.00,0.0326
2643.50,0.0326
2643.00,0.0326
2642.50,0.0325
2642.00,0.0325
2641.50,0.0324
2641.00,0.0324
2640.50,0.0324
2640.00,0.0323
2639.50,0.0323
2639.00,0.0322
2638.50,0.0322
2638.00,0.0322
2637.50,0.0321
2637.00,0.0321
2636.50,0.0321
2636.00,0.0321
2635.50,0.0321
2635.00,0.0320
2634.50,0.0320
2634.00,0.0320
2633.50,0.0320
2633.00,0.0319
2632.50,0.0319
2632.00,0.0319
2631.50,0.0319
2631.00,0.0319
2630.50,0.0318
2630.00,0.0318
2629.50,0.0318
2629.00,0.0318
2628.50,0.0318
2628.00,0.0317
2627.50,0.0317
2627.00,0.0317
2626.50,0.0317
2626.00,0.0317
2625.50,0.0317
2625.00,0.0317
2624.50,0.0317
2624.00,0.0317
2623.50,0.0316
2623.00,0.0316
2622.50,0.0316
2622.00,0.0316
2621.50,0.0316
2621.00,0.0316
2620.50,0.0316
2620.00,0.0316
2619.50,0.0316
2619.00,0.0315
2618.50,0.0315
2618.00,0.0315
2617.50,0.0315
2617.00,0.0315
2616.50,0.0315
2616.00,0.0315
2615.50,0.0314
2615.00,0.0314
2614.50,0.0314
2614.00,0.0314
2613.50,0.0314
2613.00,0.0314
2612.50,0.0314
2612.00,0.0314
2611.50,0.0314
2611.00,0.0314
2610.50,0.0314
2610.00,0.0313
2609.50,0.0313
2609.00,0.0313
2608.50,0.0313
2608.00,0.0313
2607.50,0.0313
2607.00,0.0313
2606.50,0.0313
2606.00,0.0313
2605.50,0.0313
2605.00,0.0313
2604.50,0.0313
2604.00,0.0313
2603.50,0.0313
2603.00,0.0313
2602.50,0.0313
2602.00,0.0312
2601.50,0.0312
2601.00,0.0312
2600.50,0.0312
2600.00,0.0312
2599.50,0.0312
2599.00,0.0312
2598.50,0.0312
2598.00,0.0312
2597.50,0.0312
2597.00,0.0312
2596.50,0.0312
2596.00,0.0312
2595.50,0.0312
2595.00,0.0312
2594.50,0.0311
2594.00,0.0311
2593.50,0.0311
2593.00,0.0311
2592.50,0.0311
2592.00,0.0311
2591.50,0.0311
2591.00,0.0311
2590.50,0.0311
2590.00,0.0311
2589.50,0.0311
2589.00,0.0311
2588.50,0.0311
2588.00,0.0311
2587.50,0.0311
2587.00,0.0311
2586.50,0.0311
2586.00,0.0311
2585.50,0.0311
2585.00,0.0311
2584.50,0.0311
2584.00,0.0310
2583.50,0.0310
2583.00,0.0310
2582.50,0.0310
2582.00,0.0310
2581.50,0.0310
2581.00,0.0310
2580.50,0.0310
2580.00,0.0310
2579.50,0.0310
2579.00,0.0310
2578.50,0.0310
2578.00,0.0310
2577.50,0.0310
2577.00,0.0310
2576.50,0.0310
2576.00,0.0309
2575.50,0.0309
2575.00,0.0309
2574.50,0.0309
2574.00,0.0309
2573.50,0.0309
2573.00,0.0309
2572.50,0.0309
2572.00,0.0309
2571.50,0.0309
2571.00,0.0309
2570.50,0.0309
2570.00,0.0309
2569.50,0.0309
2569.00,0.0309
2568.50,0.0309
2568.00,0.0309
2567.50,0.0309
2567.00,0.0309
2566.50,0.0309
2566.00,0.0309
2565.50,0.0309
2565.00,0.0309
2564.50,0.0309
2564.00,0.0308
2563.50,0.0308
2563.00,0.0308
2562.50,0.0308
2562.00,0.0308
2561.50,0.0308
2561.00,0.0308
2560.50,0.0308
2560.00,0.0308
2559.50,0.0308
2559.00,0.0308
2558.50,0.0308
2558.00,0.0308
2557.50,0.0308
2557.00,0.0308
2556.50,0.0308
2556.00,0.0308
2555.50,0.0308
2555.00,0.0308
2554.50,0.0307
2554.00,0.0307
2553.50,0.0307
2553.00,0.0307
2552.50,0.0307
2552.00,0.0307
2551.50,0.0307
2551.00,0.0307
2550.50,0.0307
2550.00,0.0307
2549.50,0.0307
2549.00,0.0307
2548.50,0.0307
2548.00,0.0307
2547.50,0.0306
2547.00,0.0306
2546.50,0.0306
2546.00,0.0306
2545.50,0.0306
2545.00,0.0306
2544.50,0.0306
2544.00,0.0305
2543.50,0.0305
2543.00,0.0305
2542.50,0.0305
2542.00,0.0305
2541.50,0.0305
2541.00,0.0305
2540.50,0.0305
2540.00,0.0305
2539.50,0.0305
2539.00,0.0304
2538.50,0.0304
2538.00,0.0304
2537.50,0.0304
2537.00,0.0304
2536.50,0.0304
2536.00,0.0304
2535.50,0.0303
2535.00,0.0303
2534.50,0.0303
2534.00,0.0303
2533.50,0.0303
2533.00,0.0303
2532.50,0.0303
2532.00,0.0303
2531.50,0.0303
2531.00,0.0303
2530.50,0.0303
2530.00,0.0303
2529.50,0.0303
2529.00,0.0303
2528.50,0.0303
2528.00,0.0303
2527.50,0.0303
2527.00,0.0303
2526.50,0.0303
2526.00,0.0303
2525.50,0.0303
2525.00,0.0303
2524.50,0.0303
2524.00,0.0303
2523.50,0.0303
2523.00,0.0303
2522.50,0.0304
2522.00,0.0304
2521.50,0.0304
2521.00,0.0304
2520.50,0.0304
2520.00,0.0304
2519.50,0.0304
2519.00,0.0305
2518.50,0.0305
2518.00,0.0305
2517.50,0.0305
2517.00,0.0305
2516.50,0.0306
2516.00,0.0306
2515.50,0.0306
2515.00,0.0307
2514.50,0.0307
2514.00,0.0307
2513.50,0.0308
2513.00,0.0308
2512.50,0.0309
2512.00,0.0309
2511.50,0.0310
2511.00,0.0310
2510.50,0.0311
2510.00,0.0311
2509.50,0.0312
2509.00,0.0313
2508.50,0.0314
2508.00,0.0315
2507.50,0.0316
2507.00,0.0317
2506.50,0.0318
2506.00,0.0319
2505.50,0.0320
2505.00,0.0322
2504.50,0.0323
2504.00,0.0324
2503.50,0.0326
2503.00,0.0327
2502.50,0.0328
2502.00,0.0329
2501.50,0.0330
2501.00,0.0331
2500.50,0.0331
2500.00,0.0332
2499.50,0.0332
2499.00,0.0332
2498.50,0.0332
2498.00,0.0331
2497.50,0.0331
2497.00,0.0330
2496.50,0.0330
2496.00,0.0329
2495.50,0.0328
2495.00,0.0327
2494.50,0.0327
2494.00,0.0326
2493.50,0.0325
2493.00,0.0324
2492.50,0.0323
2492.00,0.0323
2491.50,0.0322
2491.00,0.0321
2490.50,0.0320
2490.00,0.0319
2489.50,0.0319
2489.00,0.0318
2488.50,0.0317
2488.00,0.0317
2487.50,0.0316
2487.00,0.0316
2486.50,0.0315
2486.00,0.0315
2485.50,0.0314
2485.00,0.0314
2484.50,0.0313
2484.00,0.0313
2483.50,0.0313
2483.00,0.0312
2482.50,0.0312
2482.00,0.0312
2481.50,0.0311
2481.00,0.0311
2480.50,0.0311
2480.00,0.0311
2479.50,0.0310
2479.00,0.0310
2478.50,0.0310
2478.00,0.0310
2477.50,0.0310
2477.00,0.0309
2476.50,0.0309
2476.00,0.0309
2475.50,0.0309
2475.00,0.0309
2474.50,0.0308
2474.00,0.0308
2473.50,0.0308
2473.00,0.0308
2472.50,0.0308
2472.00,0.0308
2471.50,0.0308
2471.00,0.0308
2470.50,0.0308
2470.00,0.0307
2469.50,0.0307
2469.00,0.0307
2468.50,0.0307
2468.00,0.0307
2467.50,0.0307
2467.00,0.0307
2466.50,0.0307
2466.00,0.0307
2465.50,0.0307
2465.00,0.0307
2464.50,0.0307
2464.00,0.0307
2463.50,0.0307
2463.00,0.0307
2462.50,0.0307
2462.00,0.0307
2461.50,0.0306
2461.00,0.0306
2460.50,0.0306
2460.00,0.0306
2459.50,0.0306
2459.00,0.0306
2458.50,0.0306
2458.00,0.0306
2457.50,0.0306
2457.00,0.0306
2456.50,0.0306
2456.00,0.0306
2455.50,0.0306
2455.00,0.0306
2454.50,0.0306
2454.00,0.0305
2453.50,0.0305
2453.00,0.0305
2452.50,0.0305
2452.00,0.0305
2451.50,0.0305
2451.00,0.0305
2450.50,0.0305
2450.00,0.0305
2449.50,0.0305
2449.00,0.0305
2448.50,0.0305
2448.00,0.0305
2447.50,0.0305
2447.00,0.0305
2446.50,0.0305
2446.00,0.0305
2445.50,0.0305
2445.00,0.0305
2444.50,0.0305
2444.00,0.0305
2443.50,0.0305
2443.00,0.0305
2442.50,0.0305
2442.00,0.0305
2441.50,0.0305
2441.00,0.0305
2440.50,0.0305
2440.00,0.0304
2439.50,0.0304
2439.00,0.0304
2438.50,0.0304
2438.00,0.0304
2437.50,0.0304
2437.00,0.0304
2436.50,0.0304
2436.00,0.0304
2435.50,0.0304
2435.00,0.0304
2434.50,0.0304
2434.00,0.0304
2433.50,0.0304
2433.00,0.0304
2432.50,0.0304
2432.00,0.0304
2431.50,0.0304
2431.00,0.0304
2430.50,0.0304
2430.00,0.0304
2429.50,0.0304
2429.00,0.0304
2428.50,0.0304
2428.00,0.0304
2427.50,0.0303
2427.00,0.0303
2426.50,0.0304
2426.00,0.0304
2425.50,0.0304
2425.00,0.0303
2424.50,0.0303
2424.00,0.0303
2423.50,0.0303
2423.00,0.0303
2422.50,0.0303
2422.00,0.0303
2421.50,0.0303
2421.00,0.0303
2420.50,0.0303
2420.00,0.0303
2419.50,0.0303
2419.00,0.0303
2418.50,0.0303
2418.00,0.0303
2417.50,0.0303
2417.00,0.0303
2416.50,0.0303
2416.00,0.0303
2415.50,0.0303
2415.00,0.0303
2414.50,0.0303
2414.00,0.0303
2413.50,0.0303
2413.00,0.0303
2412.50,0.0303
2412.00,0.0303
2411.50,0.0303
2411.00,0.0303
2410.50,0.0303
2410.00,0.0303
2409.50,0.0303
2409.00,0.0303
2408.50,0.0303
2408.00,0.0303
2407.50,0.0303
2407.00,0.0303
2406.50,0.0303
2406.00,0.0303
2405.50,0.0303
2405.00,0.0303
2404.50,0.0303
2404.00,0.0303
2403.50,0.0303
2403.00,0.0303
2402.50,0.0303
2402.00,0.0303
2401.50,0.0303
2401.00,0.0303
2400.50,0.0303
2400.00,0.0303
2399.50,0.0303
2399.00,0.0303
2398.50,0.0303
2398.00,0.0303
2397.50,0.0303
2397.00,0.0303
2396.50,0.0303
2396.00,0.0303
2395.50,0.0303
2395.00,0.0303
2394.50,0.0303
2394.00,0.0302
2393.50,0.0302
2393.00,0.0302
2392.50,0.0303
2392.00,0.0303
2391.50,0.0303
2391.00,0.0303
2390.50,0.0303
2390.00,0.0303
2389.50,0.0302
2389.00,0.0303
2388.50,0.0302
2388.00,0.0302
2387.50,0.0302
2387.00,0.0302
2386.50,0.0302
2386.00,0.0302
2385.50,0.0302
2385.00,0.0303
2384.50,0.0303
2384.00,0.0303
2383.50,0.0302
2383.00,0.0303
2382.50,0.0303
2382.00,0.0303
2381.50,0.0303
2381.00,0.0303
2380.50,0.0303
2380.00,0.0303
2379.50,0.0303
2379.00,0.0303
2378.50,0.0304
2378.00,0.0304
2377.50,0.0304
2377.00,0.0304
2376.50,0.0304
2376.00,0.0304
2375.50,0.0304
2375.00,0.0304
2374.50,0.0304
2374.00,0.0304
2373.50,0.0305
2373.00,0.0305
2372.50,0.0305
2372.00,0.0305
2371.50,0.0305
2371.00,0.0305
2370.50,0.0305
2370.00,0.0306
2369.50,0.0306
2369.00,0.0306
2368.50,0.0306
2368.00,0.0306
2367.50,0.0306
2367.00,0.0306
2366.50,0.0306
2366.00,0.0306
2365.50,0.0306
2365.00,0.0306
2364.50,0.0306
2364.00,0.0306
2363.50,0.0306
2363.00,0.0306
2362.50,0.0306
2362.00,0.0306
2361.50,0.0306
2361.00,0.0306
2360.50,0.0306
2360.00,0.0306
2359.50,0.0306
2359.00,0.0306
2358.50,0.0306
2358.00,0.0306
2357.50,0.0306
2357.00,0.0307
2356.50,0.0307
2356.00,0.0307
2355.50,0.0306
2355.00,0.0306
2354.50,0.0306
2354.00,0.0306
2353.50,0.0306
2353.00,0.0307
2352.50,0.0307
2352.00,0.0307
2351.50,0.0306
2351.00,0.0307
2350.50,0.0307
2350.00,0.0306
2349.50,0.0306
2349.00,0.0306
2348.50,0.0306
2348.00,0.0306
2347.50,0.0306
2347.00,0.0306
2346.50,0.0306
2346.00,0.0306
2345.50,0.0305
2345.00,0.0305
2344.50,0.0305
2344.00,0.0304
2343.50,0.0304
2343.00,0.0304
2342.50,0.0304
2342.00,0.0304
2341.50,0.0304
2341.00,0.0304
2340.50,0.0305
2340.00,0.0305
2339.50,0.0304
2339.00,0.0305
2338.50,0.0305
2338.00,0.0305
2337.50,0.0304
2337.00,0.0305
2336.50,0.0305
2336.00,0.0304
2335.50,0.0304
2335.00,0.0305
2334.50,0.0305
2334.00,0.0304
2333.50,0.0304
2333.00,0.0305
2332.50,0.0305
2332.00,0.0304
2331.50,0.0304
2331.00,0.0305
2330.50,0.0305
2330.00,0.0304
2329.50,0.0304
2329.00,0.0305
2328.50,0.0305
2328.00,0.0304
2327.50,0.0304
2327.00,0.0305
2326.50,0.0305
2326.00,0.0304
2325.50,0.0304
2325.00,0.0305
2324.50,0.0305
2324.00,0.0304
2323.50,0.0304
2323.00,0.0305
2322.50,0.0305
2322.00,0.0304
2321.50,0.0304
2321.00,0.0305
2320.50,0.0304
2320.00,0.0304
2319.50,0.0304
2319.00,0.0304
2318.50,0.0304
2318.00,0.0304
2317.50,0.0305
2317.00,0.0305
2316.50,0.0305
2316.00,0.0305
2315.50,0.0305
2315.00,0.0305
2314.50,0.0304
2314.00,0.0305
2313.50,0.0305
2313.00,0.0305
2312.50,0.0305
2312.00,0.0305
2311.50,0.0305
2311.00,0.0305
2310.50,0.0305
2310.00,0.0305
2309.50,0.0305
2309.00,0.0305
2308.50,0.0305
2308.00,0.0305
2307.50,0.0305
2307.00,0.0305
2306.50,0.0305
2306.00,0.0305
2305.50,0.0305
2305.00,0.0305
2304.50,0.0305
2304.00,0.0305
2303.50,0.0306
2303.00,0.0305
2302.50,0.0305
2302.00,0.0305
2301.50,0.0306
2301.00,0.0305
2300.50,0.0305
2300.00,0.0306
2299.50,0.0306
2299.00,0.0306
2298.50,0.0305
2298.00,0.0306
2297.50,0.0306
2297.00,0.0306
2296.50,0.0305
2296.00,0.0306
2295.50,0.0306
2295.00,0.0306
2294.50,0.0306
2294.00,0.0306
2293.50,0.0306
2293.00,0.0306
2292.50,0.0306
2292.00,0.0306
2291.50,0.0306
2291.00,0.0306
2290.50,0.0306
2290.00,0.0307
2289.50,0.0307
2289.00,0.0307
2288.50,0.0307
2288.00,0.0307
2287.50,0.0307
2287.00,0.0307
2286.50,0.0307
2286.00,0.0307
2285.50,0.0307
2285.00,0.0307
2284.50,0.0307
2284.00,0.0307
2283.50,0.0308
2283.00,0.0308
2282.50,0.0308
2282.00,0.0308
2281.50,0.0308
2281.00,0.0308
2280.50,0.0308
2280.00,0.0308
2279.50,0.0308
2279.00,0.0308
2278.50,0.0308
2278.00,0.0308
2277.50,0.0308
2277.00,0.0308
2276.50,0.0308
2276.00,0.0309
2275.50,0.0309
2275.00,0.0309
2274.50,0.0309
2274.00,0.0309
2273.50,0.0309
2273.00,0.0309
2272.50,0.0309
2272.00,0.0309
2271.50,0.0309
2271.00,0.0309
2270.50,0.0309
2270.00,0.0309
2269.50,0.0309
2269.00,0.0309
2268.50,0.0309
2268.00,0.0309
2267.50,0.0309
2267.00,0.0309
2266.50,0.0309
2266.00,0.0309
2265.50,0.0309
2265.00,0.0309
2264.50,0.0309
2264.00,0.0309
2263.50,0.0309
2263.00,0.0309
2262.50,0.0309
2262.00,0.0309
2261.50,0.0309
2261.00,0.0309
2260.50,0.0309
2260.00,0.0309
2259.50,0.0309
2259.00,0.0309
2258.50,0.0309
2258.00,0.0309
2257.50,0.0309
2257.00,0.0309
2256.50,0.0309
2256.00,0.0309
2255.50,0.0309
2255.00,0.0309
2254.50,0.0309
2254.00,0.0309
2253.50,0.0309
2253.00,0.0309
2252.50,0.0309
2252.00,0.0309
2251.50,0.0309
2251.00,0.0309
2250.50,0.0309
2250.00,0.0309
2249.50,0.0310
2249.00,0.0310
2248.50,0.0310
2248.00,0.0310
2247.50,0.0310
2247.00,0.0310
2246.50,0.0310
2246.00,0.0310
2245.50,0.0310
2245.00,0.0310
2244.50,0.0310
2244.00,0.0310
2243.50,0.0310
2243.00,0.0310
2242.50,0.0310
2242.00,0.0311
2241.50,0.0311
2241.00,0.0311
2240.50,0.0311
2240.00,0.0311
2239.50,0.0311
2239.00,0.0311
2238.50,0.0311
2238.00,0.0311
2237.50,0.0312
2237.00,0.0312
2236.50,0.0312
2236.00,0.0312
2235.50,0.0312
2235.00,0.0312
2234.50,0.0312
2234.00,0.0313
2233.50,0.0313
2233.00,0.0313
2232.50,0.0313
2232.00,0.0314
2231.50,0.0314
2231.00,0.0314
2230.50,0.0314
2230.00,0.0314
2229.50,0.0314
2229.00,0.0315
2228.50,0.0315
2228.00,0.0315
2227.50,0.0316
2227.00,0.0316
2226.50,0.0316
2226.00,0.0316
2225.50,0.0317
2225.00,0.0317
2224.50,0.0317
2224.00,0.0317
2223.50,0.0318
2223.00,0.0318
2222.50,0.0318
2222.00,0.0319
2221.50,0.0319
2221.00,0.0319
2220.50,0.0319
2220.00,0.0320
2219.50,0.0320
2219.00,0.0321
2218.50,0.0321
2218.00,0.0321
2217.50,0.0322
2217.00,0.0322
2216.50,0.0322
2216.00,0.0323
2215.50,0.0323
2215.00,0.0323
2214.50,0.0324
2214.00,0.0324
2213.50,0.0325
2213.00,0.0325
2212.50,0.0325
2212.00,0.0326
2211.50,0.0327
2211.00,0.0327
2210.50,0.0328
2210.00,0.0328
2209.50,0.0329
2209.00,0.0329
2208.50,0.0330
2208.00,0.0330
2207.50,0.0331
2207.00,0.0332
2206.50,0.0332
2206.00,0.0333
2205.50,0.0334
2205.00,0.0335
2204.50,0.0335
2204.00,0.0336
2203.50,0.0337
2203.00,0.0338
2202.50,0.0339
2202.00,0.0340
2201.50,0.0341
2201.00,0.0342
2200.50,0.0343
2200.00,0.0344
2199.50,0.0345
2199.00,0.0346
2198.50,0.0347
2198.00,0.0348
2197.50,0.0350
2197.00,0.0351
2196.50,0.0352
2196.00,0.0354
2195.50,0.0355
2195.00,0.0356
2194.50,0.0358
2194.00,0.0360
2193.50,0.0361
2193.00,0.0363
2192.50,0.0364
2192.00,0.0366
2191.50,0.0368
2191.00,0.0370
2190.50,0.0372
2190.00,0.0374
2189.50,0.0376
2189.00,0.0378
2188.50,0.0381
2188.00,0.0383
2187.50,0.0386
2187.00,0.0388
2186.50,0.0391
2186.00,0.0393
2185.50,0.0396
2185.00,0.0399
2184.50,0.0402
2184.00,0.0405
2183.50,0.0408
2183.00,0.0411
2182.50,0.0414
2182.00,0.0418
2181.50,0.0421
2181.00,0.0425
2180.50,0.0428
2180.00,0.0432
2179.50,0.0436
2179.00,0.0440
2178.50,0.0443
2178.00,0.0447
2177.50,0.0451
2177.00,0.0455
2176.50,0.0459
2176.00,0.0463
2175.50,0.0467
2175.00,0.0471
2174.50,0.0475
2174.00,0.0479
2173.50,0.0482
2173.00,0.0486
2172.50,0.0490
2172.00,0.0494
2171.50,0.0497
2171.00,0.0501
2170.50,0.0504
2170.00,0.0507
2169.50,0.0511
2169.00,0.0514
2168.50,0.0517
2168.00,0.0520
2167.50,0.0522
2167.00,0.0525
2166.50,0.0527
2166.00,0.0529
2165.50,0.0531
2165.00,0.0533
2164.50,0.0534
2164.00,0.0535
2163.50,0.0536
2163.00,0.0537
2162.50,0.0538
2162.00,0.0538
2161.50,0.0538
2161.00,0.0538
2160.50,0.0538
2160.00,0.0537
2159.50,0.0536
2159.00,0.0535
2158.50,0.0534
2158.00,0.0532
2157.50,0.0531
2157.00,0.0529
2156.50,0.0527
2156.00,0.0525
2155.50,0.0522
2155.00,0.0520
2154.50,0.0517
2154.00,0.0514
2153.50,0.0511
2153.00,0.0508
2152.50,0.0505
2152.00,0.0501
2151.50,0.0498
2151.00,0.0494
2150.50,0.0490
2150.00,0.0487
2149.50,0.0483
2149.00,0.0479
2148.50,0.0475
2148.00,0.0471
2147.50,0.0467
2147.00,0.0464
2146.50,0.0460
2146.00,0.0456
2145.50,0.0452
2145.00,0.0448
2144.50,0.0445
2144.00,0.0441
2143.50,0.0437
2143.00,0.0434
2142.50,0.0430
2142.00,0.0427
2141.50,0.0423
2141.00,0.0420
2140.50,0.0417
2140.00,0.0414
2139.50,0.0411
2139.00,0.0408
2138.50,0.0405
2138.00,0.0402
2137.50,0.0399
2137.00,0.0396
2136.50,0.0394
2136.00,0.0391
2135.50,0.0389
2135.00,0.0386
2134.50,0.0384
2134.00,0.0382
2133.50,0.0380
2133.00,0.0378
2132.50,0.0376
2132.00,0.0374
2131.50,0.0372
2131.00,0.0370
2130.50,0.0369
2130.00,0.0367
2129.50,0.0366
2129.00,0.0364
2128.50,0.0363
2128.00,0.0362
2127.50,0.0360
2127.00,0.0359
2126.50,0.0358
2126.00,0.0357
2125.50,0.0356
2125.00,0.0355
2124.50,0.0354
2124.00,0.0353
2123.50,0.0352
2123.00,0.0351
2122.50,0.0351
2122.00,0.0350
2121.50,0.0349
2121.00,0.0348
2120.50,0.0348
2120.00,0.0347
2119.50,0.0347
2119.00,0.0346
2118.50,0.0345
2118.00,0.0345
2117.50,0.0344
2117.00,0.0344
2116.50,0.0343
2116.00,0.0343
2115.50,0.0342
2115.00,0.0342
2114.50,0.0341
2114.00,0.0341
2113.50,0.0341
2113.00,0.0340
2112.50,0.0340
2112.00,0.0340
2111.50,0.0340
2111.00,0.0339
2110.50,0.0339
2110.00,0.0339
2109.50,0.0338
2109.00,0.0338
2108.50,0.0338
2108.00,0.0338
2107.50,0.0337
2107.00,0.0337
2106.50,0.0337
2106.00,0.0337
2105.50,0.0337
2105.00,0.0337
2104.50,0.0336
2104.00,0.0336
2103.50,0.0336
2103.00,0.0336
2102.50,0.0335
2102.00,0.0335
2101.50,0.0335
2101.00,0.0335
2100.50,0.0335
2100.00,0.0334
2099.50,0.0334
2099.00,0.0334
2098.50,0.0334
2098.00,0.0334
2097.50,0.0334
2097.00,0.0334
2096.50,0.0333
2096.00,0.0333
2095.50,0.0333
2095.00,0.0333
2094.50,0.0333
2094.00,0.0333
2093.50,0.0333
2093.00,0.0333
2092.50,0.0332
2092.00,0.0332
2091.50,0.0332
2091.00,0.0332
2090.50,0.0333
2090.00,0.0333
2089.50,0.0332
2089.00,0.0332
2088.50,0.0332
2088.00,0.0332
2087.50,0.0333
2087.00,0.0333
2086.50,0.0333
2086.00,0.0333
2085.50,0.0333
2085.00,0.0333
2084.50,0.0333
2084.00,0.0333
2083.50,0.0333
2083.00,0.0333
2082.50,0.0333
2082.00,0.0333
2081.50,0.0333
2081.00,0.0333
2080.50,0.0333
2080.00,0.0334
2079.50,0.0334
2079.00,0.0334
2078.50,0.0334
2078.00,0.0334
2077.50,0.0334
2077.00,0.0334
2076.50,0.0334
2076.00,0.0335
2075.50,0.0335
2075.00,0.0335
2074.50,0.0335
2074.00,0.0335
2073.50,0.0336
2073.00,0.0336
2072.50,0.0336
2072.00,0.0336
2071.50,0.0336
2071.00,0.0336
2070.50,0.0337
2070.00,0.0337
2069.50,0.0338
2069.00,0.0338
2068.50,0.0338
2068.00,0.0338
2067.50,0.0339
2067.00,0.0339
2066.50,0.0339
2066.00,0.0340
2065.50,0.0340
2065.00,0.0341
2064.50,0.0341
2064.00,0.0341
2063.50,0.0341
2063.00,0.0341
2062.50,0.0342
2062.00,0.0342
2061.50,0.0343
2061.00,0.0343
2060.50,0.0343
2060.00,0.0344
2059.50,0.0344
2059.00,0.0344
2058.50,0.0344
2058.00,0.0345
2057.50,0.0345
2057.00,0.0346
2056.50,0.0346
2056.00,0.0346
2055.50,0.0346
2055.00,0.0347
2054.50,0.0347
2054.00,0.0347
2053.50,0.0347
2053.00,0.0347
2052.50,0.0347
2052.00,0.0347
2051.50,0.0348
2051.00,0.0347
2050.50,0.0347
2050.00,0.0347
2049.50,0.0347
2049.00,0.0347
2048.50,0.0346
2048.00,0.0345
2047.50,0.0345
2047.00,0.0344
2046.50,0.0344
2046.00,0.0343
2045.50,0.0342
2045.00,0.0341
2044.50,0.0340
2044.00,0.0340
2043.50,0.0339
2043.00,0.0338
2042.50,0.0337
2042.00,0.0336
2041.50,0.0335
2041.00,0.0334
2040.50,0.0333
2040.00,0.0333
2039.50,0.0332
2039.00,0.0331
2038.50,0.0330
2038.00,0.0330
2037.50,0.0329
2037.00,0.0329
2036.50,0.0328
2036.00,0.0328
2035.50,0.0327
2035.00,0.0327
2034.50,0.0326
2034.00,0.0326
2033.50,0.0326
2033.00,0.0326
2032.50,0.0325
2032.00,0.0325
2031.50,0.0325
2031.00,0.0325
2030.50,0.0325
2030.00,0.0325
2029.50,0.0325
2029.00,0.0325
2028.50,0.0325
2028.00,0.0325
2027.50,0.0325
2027.00,0.0325
2026.50,0.0326
2026.00,0.0326
2025.50,0.0326
2025.00,0.0326
2024.50,0.0326
2024.00,0.0327
2023.50,0.0327
2023.00,0.0327
2022.50,0.0328
2022.00,0.0328
2021.50,0.0328
2021.00,0.0329
2020.50,0.0329
2020.00,0.0329
2019.50,0.0330
2019.00,0.0330
2018.50,0.0331
2018.00,0.0331
2017.50,0.0332
2017.00,0.0332
2016.50,0.0333
2016.00,0.0333
2015.50,0.0333
2015.00,0.0334
2014.50,0.0334
2014.00,0.0335
2013.50,0.0336
2013.00,0.0336
2012.50,0.0337
2012.00,0.0337
2011.50,0.0338
2011.00,0.0338
2010.50,0.0339
2010.00,0.0339
2009.50,0.0340
2009.00,0.0340
2008.50,0.0340
2008.00,0.0341
2007.50,0.0341
2007.00,0.0342
2006.50,0.0342
2006.00,0.0342
2005.50,0.0343
2005.00,0.0343
2004.50,0.0344
2004.00,0.0344
2003.50,0.0344
2003.00,0.0345
2002.50,0.0345
2002.00,0.0345
2001.50,0.0346
2001.00,0.0346
2000.50,0.0346
2000.00,0.0347
1999.50,0.0347
1999.00,0.0347
1998.50,0.0347
1998.00,0.0347
1997.50,0.0348
1997.00,0.0348
1996.50,0.0348
1996.00,0.0348
1995.50,0.0348
1995.00,0.0348
1994.50,0.0348
1994.00,0.0348
1993.50,0.0348
1993.00,0.0348
1992.50,0.0348
1992.00,0.0348
1991.50,0.0348
1991.00,0.0348
1990.50,0.0348
1990.00,0.0348
1989.50,0.0349
1989.00,0.0349
1988.50,0.0350
1988.00,0.0350
1987.50,0.0350
1987.00,0.0351
1986.50,0.0351
1986.00,0.0351
1985.50,0.0352
1985.00,0.0352
1984.50,0.0353
1984.00,0.0353
1983.50,0.0354
1983.00,0.0355
1982.50,0.0355
1982.00,0.0356
1981.50,0.0357
1981.00,0.0358
1980.50,0.0358
1980.00,0.0359
1979.50,0.0360
1979.00,0.0361
1978.50,0.0362
1978.00,0.0363
1977.50,0.0364
1977.00,0.0365
1976.50,0.0366
1976.00,0.0367
1975.50,0.0368
1975.00,0.0369
1974.50,0.0370
1974.00,0.0372
1973.50,0.0373
1973.00,0.0374
1972.50,0.0376
1972.00,0.0377
1971.50,0.0378
1971.00,0.0379
1970.50,0.0381
1970.00,0.0382
1969.50,0.0383
1969.00,0.0385
1968.50,0.0386
1968.00,0.0388
1967.50,0.0389
1967.00,0.0390
1966.50,0.0391
1966.00,0.0392
1965.50,0.0393
1965.00,0.0394
1964.50,0.0396
1964.00,0.0397
1963.50,0.0398
1963.00,0.0399
1962.50,0.0400
1962.00,0.0401
1961.50,0.0402
1961.00,0.0403
1960.50,0.0404
1960.00,0.0405
1959.50,0.0406
1959.00,0.0407
1958.50,0.0408
1958.00,0.0409
1957.50,0.0410
1957.00,0.0411
1956.50,0.0412
1956.00,0.0413
1955.50,0.0414
1955.00,0.0416
1954.50,0.0417
1954.00,0.0418
1953.50,0.0419
1953.00,0.0420
1952.50,0.0421
1952.00,0.0423
1951.50,0.0424
1951.00,0.0425
1950.50,0.0427
1950.00,0.0428
1949.50,0.0429
1949.00,0.0430
1948.50,0.0431
1948.00,0.0432
1947.50,0.0434
1947.00,0.0435
1946.50,0.0436
1946.00,0.0436
1945.50,0.0437
1945.00,0.0437
1944.50,0.0437
1944.00,0.0437
1943.50,0.0437
1943.00,0.0437
1942.50,0.0437
1942.00,0.0435
1941.50,0.0434
1941.00,0.0432
1940.50,0.0431
1940.00,0.0429
1939.50,0.0428
1939.00,0.0426
1938.50,0.0425
1938.00,0.0423
1937.50,0.0421
1937.00,0.0418
1936.50,0.0416
1936.00,0.0414
1935.50,0.0412
1935.00,0.0411
1934.50,0.0409
1934.00,0.0407
1933.50,0.0406
1933.00,0.0404
1932.50,0.0402
1932.00,0.0401
1931.50,0.0400
1931.00,0.0399
1930.50,0.0397
1930.00,0.0396
1929.50,0.0396
1929.00,0.0395
1928.50,0.0394
1928.00,0.0393
1927.50,0.0392
1927.00,0.0391
1926.50,0.0390
1926.00,0.0390
1925.50,0.0389
1925.00,0.0389
1924.50,0.0389
1924.00,0.0389
1923.50,0.0389
1923.00,0.0389
1922.50,0.0388
1922.00,0.0387
1921.50,0.0386
1921.00,0.0385
1920.50,0.0384
1920.00,0.0384
1919.50,0.0383
1919.00,0.0383
1918.50,0.0383
1918.00,0.0382
1917.50,0.0381
1917.00,0.0380
1916.50,0.0380
1916.00,0.0379
1915.50,0.0379
1915.00,0.0378
1914.50,0.0377
1914.00,0.0377
1913.50,0.0376
1913.00,0.0376
1912.50,0.0375
1912.00,0.0374
1911.50,0.0373
1911.00,0.0372
1910.50,0.0372
1910.00,0.0371
1909.50,0.0370
1909.00,0.0370
1908.50,0.0369
1908.00,0.0368
1907.50,0.0367
1907.00,0.0366
1906.50,0.0365
1906.00,0.0365
1905.50,0.0364
1905.00,0.0364
1904.50,0.0363
1904.00,0.0363
1903.50,0.0362
1903.00,0.0362
1902.50,0.0361
1902.00,0.0361
1901.50,0.0360
1901.00,0.0360
1900.50,0.0360
1900.00,0.0359
1899.50,0.0359
1899.00,0.0359
1898.50,0.0359
1898.00,0.0359
1897.50,0.0359
1897.00,0.0359
1896.50,0.0359
1896.00,0.0359
1895.50,0.0359
1895.00,0.0359
1894.50,0.0359
1894.00,0.0358
1893.50,0.0358
1893.00,0.0358
1892.50,0.0358
1892.00,0.0358
1891.50,0.0358
1891.00,0.0359
1890.50,0.0360
1890.00,0.0360
1889.50,0.0360
1889.00,0.0360
1888.50,0.0359
1888.00,0.0359
1887.50,0.0359
1887.00,0.0359
1886.50,0.0359
1886.00,0.0359
1885.50,0.0359
1885.00,0.0359
1884.50,0.0359
1884.00,0.0359
1883.50,0.0359
1883.00,0.0359
1882.50,0.0359
1882.00,0.0359
1881.50,0.0359
1881.00,0.0359
1880.50,0.0359
1880.00,0.0359
1879.50,0.0359
1879.00,0.0359
1878.50,0.0359
1878.00,0.0359
1877.50,0.0359
1877.00,0.0359
1876.50,0.0359
1876.00,0.0360
1875.50,0.0360
1875.00,0.0360
1874.50,0.0360
1874.00,0.0360
1873.50,0.0360
1873.00,0.0360
1872.50,0.0359
1872.00,0.0359
1871.50,0.0360
1871.00,0.0360
1870.50,0.0360
1870.00,0.0360
1869.50,0.0361
1869.00,0.0361
1868.50,0.0361
1868.00,0.0361
1867.50,0.0361
1867.00,0.0361
1866.50,0.0361
1866.00,0.0361
1865.50,0.0361
1865.00,0.0361
1864.50,0.0360
1864.00,0.0360
1863.50,0.0360
1863.00,0.0360
1862.50,0.0360
1862.00,0.0360
1861.50,0.0360
1861.00,0.0360
1860.50,0.0360
1860.00,0.0360
1859.50,0.0360
1859.00,0.0360
1858.50,0.0360
1858.00,0.0360
1857.50,0.0360
1857.00,0.0360
1856.50,0.0360
1856.00,0.0360
1855.50,0.0360
1855.00,0.0361
1854.50,0.0361
1854.00,0.0361
1853.50,0.0361
1853.00,0.0361
1852.50,0.0361
1852.00,0.0360
1851.50,0.0360
1851.00,0.0360
1850.50,0.0360
1850.00,0.0360
1849.50,0.0360
1849.00,0.0360
1848.50,0.0360
1848.00,0.0360
1847.50,0.0360
1847.00,0.0360
1846.50,0.0359
1846.00,0.0359
1845.50,0.0359
1845.00,0.0359
1844.50,0.0359
1844.00,0.0358
1843.50,0.0358
1843.00,0.0358
1842.50,0.0358
1842.00,0.0358
1841.50,0.0358
1841.00,0.0358
1840.50,0.0359
1840.00,0.0359
1839.50,0.0359
1839.00,0.0359
1838.50,0.0359
1838.00,0.0359
1837.50,0.0359
1837.00,0.0359
1836.50,0.0359
1836.00,0.0359
1835.50,0.0358
1835.00,0.0359
1834.50,0.0359
1834.00,0.0359
1833.50,0.0359
1833.00,0.0359
1832.50,0.0360
1832.00,0.0360
1831.50,0.0360
1831.00,0.0362
1830.50,0.0363
1830.00,0.0364
1829.50,0.0364
1829.00,0.0363
1828.50,0.0363
1828.00,0.0362
1827.50,0.0361
1827.00,0.0361
1826.50,0.0362
1826.00,0.0363
1825.50,0.0363
1825.00,0.0363
1824.50,0.0363
1824.00,0.0363
1823.50,0.0363
1823.00,0.0363
1822.50,0.0363
1822.00,0.0364
1821.50,0.0364
1821.00,0.0365
1820.50,0.0365
1820.00,0.0365
1819.50,0.0365
1819.00,0.0365
1818.50,0.0366
1818.00,0.0366
1817.50,0.0366
1817.00,0.0366
1816.50,0.0367
1816.00,0.0367
1815.50,0.0368
1815.00,0.0368
1814.50,0.0369
1814.00,0.0370
1813.50,0.0370
1813.00,0.0371
1812.50,0.0371
1812.00,0.0372
1811.50,0.0372
1811.00,0.0373
1810.50,0.0373
1810.00,0.0373
1809.50,0.0374
1809.00,0.0374
1808.50,0.0375
1808.00,0.0376
1807.50,0.0376
1807.00,0.0377
1806.50,0.0378
1806.00,0.0378
1805.50,0.0378
1805.00,0.0379
1804.50,0.0379
1804.00,0.0380
1803.50,0.0381
1803.00,0.0381
1802.50,0.0382
1802.00,0.0382
1801.50,0.0382
1801.00,0.0382
1800.50,0.0383
1800.00,0.0384
1799.50,0.0385
1799.00,0.0386
1798.50,0.0386
1798.00,0.0386
1797.50,0.0387
1797.00,0.0387
1796.50,0.0389
1796.00,0.0389
1795.50,0.0390
1795.00,0.0390
1794.50,0.0390
1794.00,0.0390
1793.50,0.0391
1793.00,0.0391
1792.50,0.0392
1792.00,0.0392
1791.50,0.0392
1791.00,0.0392
1790.50,0.0393
1790.00,0.0394
1789.50,0.0394
1789.00,0.0395
1788.50,0.0395
1788.00,0.0396
1787.50,0.0396
1787.00,0.0396
1786.50,0.0396
1786.00,0.0396
1785.50,0.0396
1785.00,0.0396
1784.50,0.0396
1784.00,0.0397
1783.50,0.0398
1783.00,0.0398
1782.50,0.0399
1782.00,0.0399
1781.50,0.0400
1781.00,0.0401
1780.50,0.0401
1780.00,0.0400
1779.50,0.0400
1779.00,0.0400
1778.50,0.0400
1778.00,0.0400
1777.50,0.0401
1777.00,0.0401
1776.50,0.0401
1776.00,0.0401
1775.50,0.0402
1775.00,0.0402
1774.50,0.0402
1774.00,0.0402
1773.50,0.0403
1773.00,0.0403
1772.50,0.0404
1772.00,0.0404
1771.50,0.0404
1771.00,0.0403
1770.50,0.0402
1770.00,0.0401
1769.50,0.0401
1769.00,0.0401
1768.50,0.0400
1768.00,0.0400
1767.50,0.0400
1767.00,0.0400
1766.50,0.0399
1766.00,0.0399
1765.50,0.0400
1765.00,0.0400
1764.50,0.0400
1764.00,0.0401
1763.50,0.0401
1763.00,0.0401
1762.50,0.0401
1762.00,0.0401
1761.50,0.0400
1761.00,0.0400
1760.50,0.0400
1760.00,0.0399
1759.50,0.0399
1759.00,0.0399
1758.50,0.0399
1758.00,0.0399
1757.50,0.0399
1757.00,0.0399
1756.50,0.0398
1756.00,0.0397
1755.50,0.0397
1755.00,0.0398
1754.50,0.0398
1754.00,0.0397
1753.50,0.0397
1753.00,0.0397
1752.50,0.0395
1752.00,0.0392
1751.50,0.0390
1751.00,0.0391
1750.50,0.0393
1750.00,0.0395
1749.50,0.0398
1749.00,0.0399
1748.50,0.0399
1748.00,0.0400
1747.50,0.0401
1747.00,0.0401
1746.50,0.0400
1746.00,0.0400
1745.50,0.0401
1745.00,0.0401
1744.50,0.0401
1744.00,0.0402
1743.50,0.0403
1743.00,0.0403
1742.50,0.0402
1742.00,0.0402
1741.50,0.0402
1741.00,0.0402
1740.50,0.0403
1740.00,0.0404
1739.50,0.0404
1739.00,0.0404
1738.50,0.0403
1738.00,0.0403
1737.50,0.0403
1737.00,0.0403
1736.50,0.0403
1736.00,0.0403
1735.50,0.0404
1735.00,0.0402
1734.50,0.0399
1734.00,0.0397
1733.50,0.0397
1733.00,0.0399
1732.50,0.0402
1732.00,0.0404
1731.50,0.0406
1731.00,0.0407
1730.50,0.0408
1730.00,0.0408
1729.50,0.0407
1729.00,0.0407
1728.50,0.0407
1728.00,0.0407
1727.50,0.0408
1727.00,0.0408
1726.50,0.0409
1726.00,0.0409
1725.50,0.0409
1725.00,0.0409
1724.50,0.0409
1724.00,0.0409
1723.50,0.0409
1723.00,0.0409
1722.50,0.0409
1722.00,0.0409
1721.50,0.0410
1721.00,0.0410
1720.50,0.0411
1720.00,0.0411
1719.50,0.0410
1719.00,0.0409
1718.50,0.0408
1718.00,0.0408
1717.50,0.0409
1717.00,0.0409
1716.50,0.0410
1716.00,0.0411
1715.50,0.0411
1715.00,0.0411
1714.50,0.0412
1714.00,0.0412
1713.50,0.0412
1713.00,0.0411
1712.50,0.0410
1712.00,0.0410
1711.50,0.0410
1711.00,0.0410
1710.50,0.0410
1710.00,0.0410
1709.50,0.0410
1709.00,0.0410
1708.50,0.0410
1708.00,0.0410
1707.50,0.0410
1707.00,0.0411
1706.50,0.0411
1706.00,0.0412
1705.50,0.0413
1705.00,0.0414
1704.50,0.0415
1704.00,0.0415
1703.50,0.0414
1703.00,0.0413
1702.50,0.0412
1702.00,0.0412
1701.50,0.0411
1701.00,0.0409
1700.50,0.0404
1700.00,0.0406
1699.50,0.0409
1699.00,0.0411
1698.50,0.0411
1698.00,0.0412
1697.50,0.0413
1697.00,0.0413
1696.50,0.0413
1696.00,0.0412
1695.50,0.0412
1695.00,0.0412
1694.50,0.0412
1694.00,0.0412
1693.50,0.0413
1693.00,0.0413
1692.50,0.0413
1692.00,0.0413
1691.50,0.0413
1691.00,0.0413
1690.50,0.0413
1690.00,0.0414
1689.50,0.0414
1689.00,0.0415
1688.50,0.0415
1688.00,0.0415
1687.50,0.0415
1687.00,0.0415
1686.50,0.0415
1686.00,0.0415
1685.50,0.0415
1685.00,0.0416
1684.50,0.0417
1684.00,0.0417
1683.50,0.0418
1683.00,0.0420
1682.50,0.0420
1682.00,0.0420
1681.50,0.0421
1681.00,0.0422
1680.50,0.0422
1680.00,0.0422
1679.50,0.0421
1679.00,0.0421
1678.50,0.0421
1678.00,0.0421
1677.50,0.0421
1677.00,0.0422
1676.50,0.0422
1676.00,0.0422
1675.50,0.0421
1675.00,0.0422
1674.50,0.0423
1674.00,0.0423
1673.50,0.0424
1673.00,0.0425
1672.50,0.0426
1672.00,0.0427
1671.50,0.0428
1671.00,0.0428
1670.50,0.0428
1670.00,0.0429
1669.50,0.0429
1669.00,0.0430
1668.50,0.0432
1668.00,0.0432
1667.50,0.0432
1667.00,0.0432
1666.50,0.0433
1666.00,0.0433
1665.50,0.0434
1665.00,0.0434
1664.50,0.0434
1664.00,0.0435
1663.50,0.0436
1663.00,0.0436
1662.50,0.0437
1662.00,0.0438
1661.50,0.0438
1661.00,0.0437
1660.50,0.0437
1660.00,0.0438
1659.50,0.0438
1659.00,0.0438
1658.50,0.0439
1658.00,0.0440
1657.50,0.0441
1657.00,0.0442
1656.50,0.0443
1656.00,0.0444
1655.50,0.0445
1655.00,0.0445
1654.50,0.0445
1654.00,0.0446
1653.50,0.0448
1653.00,0.0446
1652.50,0.0448
1652.00,0.0452
1651.50,0.0453
1651.00,0.0452
1650.50,0.0452
1650.00,0.0452
1649.50,0.0453
1649.00,0.0453
1648.50,0.0453
1648.00,0.0452
1647.50,0.0453
1647.00,0.0453
1646.50,0.0452
1646.00,0.0452
1645.50,0.0453
1645.00,0.0453
1644.50,0.0453
1644.00,0.0453
1643.50,0.0454
1643.00,0.0455
1642.50,0.0455
1642.00,0.0454
1641.50,0.0454
1641.00,0.0455
1640.50,0.0455
1640.00,0.0455
1639.50,0.0456
1639.00,0.0457
1638.50,0.0457
1638.00,0.0457
1637.50,0.0458
1637.00,0.0459
1636.50,0.0459
1636.00,0.0459
1635.50,0.0459
1635.00,0.0460
1634.50,0.0462
1634.00,0.0463
1633.50,0.0464
1633.00,0.0464
1632.50,0.0465
1632.00,0.0465
1631.50,0.0465
1631.00,0.0465
1630.50,0.0465
1630.00,0.0465
1629.50,0.0466
1629.00,0.0466
1628.50,0.0467
1628.00,0.0468
1627.50,0.0469
1627.00,0.0470
1626.50,0.0470
1626.00,0.0471
1625.50,0.0471
1625.00,0.0472
1624.50,0.0474
1624.00,0.0475
1623.50,0.0476
1623.00,0.0476
1622.50,0.0476
1622.00,0.0476
1621.50,0.0477
1621.00,0.0477
1620.50,0.0478
1620.00,0.0479
1619.50,0.0479
1619.00,0.0479
1618.50,0.0480
1618.00,0.0481
1617.50,0.0482
1617.00,0.0483
1616.50,0.0484
1616.00,0.0484
1615.50,0.0484
1615.00,0.0484
1614.50,0.0485
1614.00,0.0485
1613.50,0.0486
1613.00,0.0487
1612.50,0.0487
1612.00,0.0487
1611.50,0.0487
1611.00,0.0487
1610.50,0.0487
1610.00,0.0488
1609.50,0.0489
1609.00,0.0489
1608.50,0.0490
1608.00,0.0490
1607.50,0.0491
1607.00,0.0492
1606.50,0.0493
1606.00,0.0493
1605.50,0.0493
1605.00,0.0494
1604.50,0.0494
1604.00,0.0496
1603.50,0.0497
1603.00,0.0498
1602.50,0.0500
1602.00,0.0501
1601.50,0.0502
1601.00,0.0504
1600.50,0.0507
1600.00,0.0510
1599.50,0.0514
1599.00,0.0518
1598.50,0.0523
1598.00,0.0527
1597.50,0.0530
1597.00,0.0532
1596.50,0.0531
1596.00,0.0529
1595.50,0.0526
1595.00,0.0521
1594.50,0.0516
1594.00,0.0511
1593.50,0.0507
1593.00,0.0504
1592.50,0.0501
1592.00,0.0499
1591.50,0.0497
1591.00,0.0496
1590.50,0.0494
1590.00,0.0493
1589.50,0.0492
1589.00,0.0491
1588.50,0.0490
1588.00,0.0489
1587.50,0.0489
1587.00,0.0488
1586.50,0.0487
1586.00,0.0487
1585.50,0.0486
1585.00,0.0486
1584.50,0.0486
1584.00,0.0486
1583.50,0.0486
1583.00,0.0486
1582.50,0.0486
1582.00,0.0486
1581.50,0.0486
1581.00,0.0487
1580.50,0.0487
1580.00,0.0488
1579.50,0.0488
1579.00,0.0489
1578.50,0.0489
1578.00,0.0490
1577.50,0.0490
1577.00,0.0491
1576.50,0.0490
1576.00,0.0488
1575.50,0.0486
1575.00,0.0484
1574.50,0.0483
1574.00,0.0482
1573.50,0.0482
1573.00,0.0481
1572.50,0.0480
1572.00,0.0478
1571.50,0.0477
1571.00,0.0476
1570.50,0.0475
1570.00,0.0474
1569.50,0.0471
1569.00,0.0469
1568.50,0.0466
1568.00,0.0465
1567.50,0.0464
1567.00,0.0463
1566.50,0.0462
1566.00,0.0462
1565.50,0.0461
1565.00,0.0460
1564.50,0.0459
1564.00,0.0458
1563.50,0.0457
1563.00,0.0457
1562.50,0.0458
1562.00,0.0458
1561.50,0.0459
1561.00,0.0459
1560.50,0.0456
1560.00,0.0450
1559.50,0.0446
1559.00,0.0445
1558.50,0.0447
1558.00,0.0451
1557.50,0.0455
1557.00,0.0457
1556.50,0.0457
1556.00,0.0457
1555.50,0.0457
1555.00,0.0457
1554.50,0.0455
1554.00,0.0453
1553.50,0.0451
1553.00,0.0451
1552.50,0.0451
1552.00,0.0451
1551.50,0.0452
1551.00,0.0453
1550.50,0.0453
1550.00,0.0452
1549.50,0.0452
1549.00,0.0452
1548.50,0.0453
1548.00,0.0454
1547.50,0.0455
1547.00,0.0456
1546.50,0.0457
1546.00,0.0458
1545.50,0.0459
1545.00,0.0461
1544.50,0.0463
1544.00,0.0465
1543.50,0.0467
1543.00,0.0471
1542.50,0.0474
1542.00,0.0477
1541.50,0.0479
1541.00,0.0480
1540.50,0.0479
1540.00,0.0477
1539.50,0.0477
1539.00,0.0477
1538.50,0.0476
1538.00,0.0474
1537.50,0.0472
1537.00,0.0471
1536.50,0.0469
1536.00,0.0467
1535.50,0.0465
1535.00,0.0465
1534.50,0.0464
1534.00,0.0461
1533.50,0.0459
1533.00,0.0458
1532.50,0.0457
1532.00,0.0456
1531.50,0.0455
1531.00,0.0455
1530.50,0.0454
1530.00,0.0454
1529.50,0.0453
1529.00,0.0452
1528.50,0.0452
1528.00,0.0451
1527.50,0.0450
1527.00,0.0450
1526.50,0.0451
1526.00,0.0451
1525.50,0.0451
1525.00,0.0451
1524.50,0.0451
1524.00,0.0451
1523.50,0.0451
1523.00,0.0451
1522.50,0.0452
1522.00,0.0453
1521.50,0.0453
1521.00,0.0453
1520.50,0.0452
1520.00,0.0452
1519.50,0.0451
1519.00,0.0450
1518.50,0.0450
1518.00,0.0451
1517.50,0.0451
1517.00,0.0451
1516.50,0.0450
1516.00,0.0449
1515.50,0.0448
1515.00,0.0447
1514.50,0.0447
1514.00,0.0447
1513.50,0.0447
1513.00,0.0446
1512.50,0.0446
1512.00,0.0446
1511.50,0.0446
1511.00,0.0446
1510.50,0.0446
1510.00,0.0446
1509.50,0.0447
1509.00,0.0447
1508.50,0.0446
1508.00,0.0446
1507.50,0.0444
1507.00,0.0444
1506.50,0.0444
1506.00,0.0446
1505.50,0.0447
1505.00,0.0448
1504.50,0.0448
1504.00,0.0448
1503.50,0.0448
1503.00,0.0448
1502.50,0.0447
1502.00,0.0446
1501.50,0.0446
1501.00,0.0446
1500.50,0.0446
1500.00,0.0448
1499.50,0.0449
1499.00,0.0448
1498.50,0.0446
1498.00,0.0446
1497.50,0.0449
1497.00,0.0451
1496.50,0.0450
1496.00,0.0449
1495.50,0.0450
1495.00,0.0451
1494.50,0.0452
1494.00,0.0453
1493.50,0.0454
1493.00,0.0454
1492.50,0.0454
1492.00,0.0454
1491.50,0.0453
1491.00,0.0454
1490.50,0.0456
1490.00,0.0459
1489.50,0.0462
1489.00,0.0464
1488.50,0.0465
1488.00,0.0466
1487.50,0.0468
1487.00,0.0469
1486.50,0.0471
1486.00,0.0472
1485.50,0.0473
1485.00,0.0473
1484.50,0.0474
1484.00,0.0475
1483.50,0.0476
1483.00,0.0476
1482.50,0.0477
1482.00,0.0477
1481.50,0.0478
1481.00,0.0478
1480.50,0.0479
1480.00,0.0479
1479.50,0.0480
1479.00,0.0480
1478.50,0.0481
1478.00,0.0481
1477.50,0.0481
1477.00,0.0481
1476.50,0.0481
1476.00,0.0482
1475.50,0.0483
1475.00,0.0483
1474.50,0.0484
1474.00,0.0483
1473.50,0.0484
1473.00,0.0485
1472.50,0.0488
1472.00,0.0491
1471.50,0.0494
1471.00,0.0498
1470.50,0.0501
1470.00,0.0504
1469.50,0.0507
1469.00,0.0510
1468.50,0.0513
1468.00,0.0516
1467.50,0.0519
1467.00,0.0522
1466.50,0.0525
1466.00,0.0528
1465.50,0.0530
1465.00,0.0533
1464.50,0.0536
1464.00,0.0539
1463.50,0.0542
1463.00,0.0546
1462.50,0.0551
1462.00,0.0556
1461.50,0.0561
1461.00,0.0566
1460.50,0.0571
1460.00,0.0576
1459.50,0.0582
1459.00,0.0588
1458.50,0.0593
1458.00,0.0598
1457.50,0.0603
1457.00,0.0608
1456.50,0.0614
1456.00,0.0621
1455.50,0.0627
1455.00,0.0632
1454.50,0.0638
1454.00,0.0645
1453.50,0.0652
1453.00,0.0658
1452.50,0.0665
1452.00,0.0671
1451.50,0.0679
1451.00,0.0686
1450.50,0.0693
1450.00,0.0699
1449.50,0.0705
1449.00,0.0710
1448.50,0.0715
1448.00,0.0721
1447.50,0.0727
1447.00,0.0731
1446.50,0.0733
1446.00,0.0735
1445.50,0.0735
1445.00,0.0735
1444.50,0.0734
1444.00,0.0731
1443.50,0.0728
1443.00,0.0725
1442.50,0.0721
1442.00,0.0716
1441.50,0.0711
1441.00,0.0706
1440.50,0.0701
1440.00,0.0696
1439.50,0.0691
1439.00,0.0686
1438.50,0.0682
1438.00,0.0678
1437.50,0.0674
1437.00,0.0668
1436.50,0.0663
1436.00,0.0661
1435.50,0.0662
1435.00,0.0662
1434.50,0.0662
1434.00,0.0662
1433.50,0.0662
1433.00,0.0663
1432.50,0.0664
1432.00,0.0666
1431.50,0.0669
1431.00,0.0672
1430.50,0.0676
1430.00,0.0680
1429.50,0.0686
1429.00,0.0693
1428.50,0.0699
1428.00,0.0706
1427.50,0.0715
1427.00,0.0726
1426.50,0.0736
1426.00,0.0747
1425.50,0.0760
1425.00,0.0773
1424.50,0.0788
1424.00,0.0805
1423.50,0.0824
1423.00,0.0844
1422.50,0.0864
1422.00,0.0885
1421.50,0.0906
1421.00,0.0927
1420.50,0.0948
1420.00,0.0972
1419.50,0.1002
1419.00,0.1034
1418.50,0.1061
1418.00,0.1082
1417.50,0.1103
1417.00,0.1125
1416.50,0.1146
1416.00,0.1165
1415.50,0.1183
1415.00,0.1198
1414.50,0.1212
1414.00,0.1223
1413.50,0.1232
1413.00,0.1239
1412.50,0.1243
1412.00,0.1246
1411.50,0.1246
1411.00,0.1245
1410.50,0.1243
1410.00,0.1240
1409.50,0.1234
1409.00,0.1228
1408.50,0.1220
1408.00,0.1211
1407.50,0.1201
1407.00,0.1190
1406.50,0.1179
1406.00,0.1168
1405.50,0.1155
1405.00,0.1142
1404.50,0.1130
1404.00,0.1120
1403.50,0.1111
1403.00,0.1102
1402.50,0.1093
1402.00,0.1084
1401.50,0.1074
1401.00,0.1064
1400.50,0.1053
1400.00,0.1041
1399.50,0.1026
1399.00,0.1009
1398.50,0.0992
1398.00,0.0976
1397.50,0.0960
1397.00,0.0944
1396.50,0.0928
1396.00,0.0912
1395.50,0.0894
1395.00,0.0874
1394.50,0.0851
1394.00,0.0828
1393.50,0.0807
1393.00,0.0788
1392.50,0.0770
1392.00,0.0753
1391.50,0.0737
1391.00,0.0722
1390.50,0.0708
1390.00,0.0696
1389.50,0.0685
1389.00,0.0676
1388.50,0.0667
1388.00,0.0659
1387.50,0.0650
1387.00,0.0642
1386.50,0.0635
1386.00,0.0629
1385.50,0.0624
1385.00,0.0619
1384.50,0.0614
1384.00,0.0608
1383.50,0.0603
1383.00,0.0598
1382.50,0.0593
1382.00,0.0588
1381.50,0.0584
1381.00,0.0580
1380.50,0.0577
1380.00,0.0574
1379.50,0.0571
1379.00,0.0569
1378.50,0.0567
1378.00,0.0565
1377.50,0.0563
1377.00,0.0562
1376.50,0.0561
1376.00,0.0561
1375.50,0.0560
1375.00,0.0559
1374.50,0.0559
1374.00,0.0559
1373.50,0.0558
1373.00,0.0557
1372.50,0.0557
1372.00,0.0556
1371.50,0.0555
1371.00,0.0553
1370.50,0.0552
1370.00,0.0550
1369.50,0.0549
1369.00,0.0547
1368.50,0.0546
1368.00,0.0544
1367.50,0.0542
1367.00,0.0541
1366.50,0.0540
1366.00,0.0539
1365.50,0.0538
1365.00,0.0537
1364.50,0.0536
1364.00,0.0536
1363.50,0.0535
1363.00,0.0534
1362.50,0.0534
1362.00,0.0533
1361.50,0.0533
1361.00,0.0532
1360.50,0.0532
1360.00,0.0531
1359.50,0.0530
1359.00,0.0529
1358.50,0.0529
1358.00,0.0528
1357.50,0.0528
1357.00,0.0527
1356.50,0.0527
1356.00,0.0528
1355.50,0.0527
1355.00,0.0527
1354.50,0.0527
1354.00,0.0527
1353.50,0.0527
1353.00,0.0527
1352.50,0.0527
1352.00,0.0528
1351.50,0.0528
1351.00,0.0528
1350.50,0.0528
1350.00,0.0529
1349.50,0.0529
1349.00,0.0529
1348.50,0.0529
1348.00,0.0529
1347.50,0.0529
1347.00,0.0529
1346.50,0.0530
1346.00,0.0530
1345.50,0.0531
1345.00,0.0531
1344.50,0.0531
1344.00,0.0531
1343.50,0.0531
1343.00,0.0531
1342.50,0.0531
1342.00,0.0531
1341.50,0.0531
1341.00,0.0531
1340.50,0.0531
1340.00,0.0532
1339.50,0.0532
1339.00,0.0533
1338.50,0.0533
1338.00,0.0534
1337.50,0.0534
1337.00,0.0535
1336.50,0.0535
1336.00,0.0536
1335.50,0.0536
1335.00,0.0536
1334.50,0.0537
1334.00,0.0538
1333.50,0.0538
1333.00,0.0539
1332.50,0.0540
1332.00,0.0542
1331.50,0.0543
1331.00,0.0544
1330.50,0.0546
1330.00,0.0548
1329.50,0.0549
1329.00,0.0551
1328.50,0.0553
1328.00,0.0555
1327.50,0.0557
1327.00,0.0559
1326.50,0.0561
1326.00,0.0563
1325.50,0.0566
1325.00,0.0568
1324.50,0.0570
1324.00,0.0573
1323.50,0.0576
1323.00,0.0578
1322.50,0.0581
1322.00,0.0584
1321.50,0.0587
1321.00,0.0589
1320.50,0.0593
1320.00,0.0596
1319.50,0.0599
1319.00,0.0602
1318.50,0.0605
1318.00,0.0609
1317.50,0.0612
1317.00,0.0616
1316.50,0.0619
1316.00,0.0623
1315.50,0.0627
1315.00,0.0630
1314.50,0.0634
1314.00,0.0638
1313.50,0.0642
1313.00,0.0646
1312.50,0.0650
1312.00,0.0655
1311.50,0.0659
1311.00,0.0663
1310.50,0.0668
1310.00,0.0672
1309.50,0.0677
1309.00,0.0681
1308.50,0.0686
1308.00,0.0691
1307.50,0.0696
1307.00,0.0701
1306.50,0.0706
1306.00,0.0711
1305.50,0.0716
1305.00,0.0722
1304.50,0.0728
1304.00,0.0733
1303.50,0.0739
1303.00,0.0745
1302.50,0.0752
1302.00,0.0758
1301.50,0.0764
1301.00,0.0771
1300.50,0.0778
1300.00,0.0785
1299.50,0.0793
1299.00,0.0800
1298.50,0.0808
1298.00,0.0817
1297.50,0.0825
1297.00,0.0834
1296.50,0.0843
1296.00,0.0852
1295.50,0.0862
1295.00,0.0872
1294.50,0.0882
1294.00,0.0893
1293.50,0.0905
1293.00,0.0917
1292.50,0.0929
1292.00,0.0941
1291.50,0.0954
1291.00,0.0968
1290.50,0.0982
1290.00,0.0996
1289.50,0.1011
1289.00,0.1027
1288.50,0.1044
1288.00,0.1061
1287.50,0.1079
1287.00,0.1097
1286.50,0.1117
1286.00,0.1138
1285.50,0.1160
1285.00,0.1183
1284.50,0.1208
1284.00,0.1234
1283.50,0.1261
1283.00,0.1291
1282.50,0.1322
1282.00,0.1356
1281.50,0.1392
1281.00,0.1431
1280.50,0.1474
1280.00,0.1520
1279.50,0.1569
1279.00,0.1623
1278.50,0.1681
1278.00,0.1745
1277.50,0.1814
1277.00,0.1891
1276.50,0.1975
1276.00,0.2067
1275.50,0.2169
1275.00,0.2282
1274.50,0.2408
1274.00,0.2547
1273.50,0.2701
1273.00,0.2875
1272.50,0.3070
1272.00,0.3291
1271.50,0.3542
1271.00,0.3826
1270.50,0.4146
1270.00,0.4507
1269.50,0.4914
1269.00,0.5370
1268.50,0.5872
1268.00,0.6417
1267.50,0.6998
1267.00,0.7607
1266.50,0.8226
1266.00,0.8834
1265.50,0.9416
1265.00,0.9956
1264.50,1.0436
1264.00,1.0842
1263.50,1.1174
1263.00,1.1431
1262.50,1.1604
1262.00,1.1691
1261.50,1.1706
1261.00,1.1658
1260.50,1.1544
1260.00,1.1366
1259.50,1.1141
1259.00,1.0877
1258.50,1.0571
1258.00,1.0229
1257.50,0.9868
1257.00,0.9500
1256.50,0.9128
1256.00,0.8758
1255.50,0.8398
1255.00,0.8050
1254.50,0.7707
1254.00,0.7364
1253.50,0.7018
1253.00,0.6667
1252.50,0.6305
1252.00,0.5934
1251.50,0.5560
1251.00,0.5191
1250.50,0.4833
1250.00,0.4490
1249.50,0.4170
1249.00,0.3875
1248.50,0.3606
1248.00,0.3362
1247.50,0.3144
1247.00,0.2949
1246.50,0.2776
1246.00,0.2623
1245.50,0.2487
1245.00,0.2367
1244.50,0.2260
1244.00,0.2164
1243.50,0.2078
1243.00,0.2001
1242.50,0.1932
1242.00,0.1870
1241.50,0.1814
1241.00,0.1764
1240.50,0.1718
1240.00,0.1677
1239.50,0.1639
1239.00,0.1606
1238.50,0.1575
1238.00,0.1548
1237.50,0.1523
1237.00,0.1501
1236.50,0.1481
1236.00,0.1463
1235.50,0.1447
1235.00,0.1433
1234.50,0.1421
1234.00,0.1410
1233.50,0.1401
1233.00,0.1394
1232.50,0.1388
1232.00,0.1383
1231.50,0.1380
1231.00,0.1378
1230.50,0.1377
1230.00,0.1377
1229.50,0.1378
1229.00,0.1381
1228.50,0.1384
1228.00,0.1389
1227.50,0.1394
1227.00,0.1401
1226.50,0.1408
1226.00,0.1416
1225.50,0.1425
1225.00,0.1435
1224.50,0.1446
1224.00,0.1458
1223.50,0.1470
1223.00,0.1484
1222.50,0.1498
1222.00,0.1512
1221.50,0.1528
1221.00,0.1544
1220.50,0.1561
1220.00,0.1579
1219.50,0.1597
1219.00,0.1616
1218.50,0.1635
1218.00,0.1655
1217.50,0.1675
1217.00,0.1696
1216.50,0.1718
1216.00,0.1740
1215.50,0.1762
1215.00,0.1785
1214.50,0.1808
1214.00,0.1831
1213.50,0.1854
1213.00,0.1878
1212.50,0.1902
1212.00,0.1926
1211.50,0.1950
1211.00,0.1974
1210.50,0.1998
1210.00,0.2022
1209.50,0.2047
1209.00,0.2071
1208.50,0.2095
1208.00,0.2119
1207.50,0.2143
1207.00,0.2166
1206.50,0.2190
1206.00,0.2213
1205.50,0.2235
1205.00,0.2258
1204.50,0.2280
1204.00,0.2301
1203.50,0.2323
1203.00,0.2344
1202.50,0.2365
1202.00,0.2385
1201.50,0.2405
1201.00,0.2425
1200.50,0.2444
1200.00,0.2463
1199.50,0.2481
1199.00,0.2499
1198.50,0.2516
1198.00,0.2533
1197.50,0.2549
1197.00,0.2566
1196.50,0.2581
1196.00,0.2596
1195.50,0.2610
1195.00,0.2625
1194.50,0.2639
1194.00,0.2652
1193.50,0.2665
1193.00,0.2678
1192.50,0.2690
1192.00,0.2702
1191.50,0.2713
1191.00,0.2725
1190.50,0.2736
1190.00,0.2746
1189.50,0.2757
1189.00,0.2767
1188.50,0.2778
1188.00,0.2789
1187.50,0.2800
1187.00,0.2812
1186.50,0.2823
1186.00,0.2831
1185.50,0.2838
1185.00,0.2844
1184.50,0.2850
1184.00,0.2855
1183.50,0.2861
1183.00,0.2868
1182.50,0.2875
1182.00,0.2882
1181.50,0.2889
1181.00,0.2897
1180.50,0.2905
1180.00,0.2912
1179.50,0.2920
1179.00,0.2929
1178.50,0.2937
1178.00,0.2945
1177.50,0.2953
1177.00,0.2962
1176.50,0.2971
1176.00,0.2980
1175.50,0.2989
1175.00,0.2998
1174.50,0.3008
1174.00,0.3017
1173.50,0.3027
1173.00,0.3036
1172.50,0.3046
1172.00,0.3056
1171.50,0.3065
1171.00,0.3075
1170.50,0.3084
1170.00,0.3093
1169.50,0.3103
1169.00,0.3112
1168.50,0.3123
1168.00,0.3133
1167.50,0.3144
1167.00,0.3156
1166.50,0.3167
1166.00,0.3179
1165.50,0.3191
1165.00,0.3204
1164.50,0.3216
1164.00,0.3229
1163.50,0.3243
1163.00,0.3258
1162.50,0.3273
1162.00,0.3288
1161.50,0.3304
1161.00,0.3321
1160.50,0.3338
1160.00,0.3355
1159.50,0.3374
1159.00,0.3393
1158.50,0.3412
1158.00,0.3431
1157.50,0.3451
1157.00,0.3472
1156.50,0.3492
1156.00,0.3513
1155.50,0.3535
1155.00,0.3558
1154.50,0.3581
1154.00,0.3605
1153.50,0.3629
1153.00,0.3655
1152.50,0.3682
1152.00,0.3710
1151.50,0.3738
1151.00,0.3767
1150.50,0.3798
1150.00,0.3829
1149.50,0.3861
1149.00,0.3895
1148.50,0.3930
1148.00,0.3965
1147.50,0.4002
1147.00,0.4041
1146.50,0.4081
1146.00,0.4121
1145.50,0.4163
1145.00,0.4207
1144.50,0.4253
1144.00,0.4299
1143.50,0.4347
1143.00,0.4397
1142.50,0.4448
1142.00,0.4500
1141.50,0.4554
1141.00,0.4609
1140.50,0.4665
1140.00,0.4722
1139.50,0.4780
1139.00,0.4840
1138.50,0.4901
1138.00,0.4962
1137.50,0.5024
1137.00,0.5088
1136.50,0.5153
1136.00,0.5219
1135.50,0.5287
1135.00,0.5358
1134.50,0.5430
1134.00,0.5504
1133.50,0.5580
1133.00,0.5660
1132.50,0.5741
1132.00,0.5825
1131.50,0.5912
1131.00,0.6002
1130.50,0.6096
1130.00,0.6191
1129.50,0.6290
1129.00,0.6393
1128.50,0.6498
1128.00,0.6605
1127.50,0.6715
1127.00,0.6828
1126.50,0.6943
1126.00,0.7060
1125.50,0.7181
1125.00,0.7306
1124.50,0.7433
1124.00,0.7560
1123.50,0.7690
1123.00,0.7824
1122.50,0.7959
1122.00,0.8094
1121.50,0.8232
1121.00,0.8374
1120.50,0.8517
1120.00,0.8659
1119.50,0.8804
1119.00,0.8952
1118.50,0.9100
1118.00,0.9246
1117.50,0.9393
1117.00,0.9542
1116.50,0.9691
1116.00,0.9836
1115.50,0.9982
1115.00,1.0131
1114.50,1.0277
1114.00,1.0419
1113.50,1.0561
1113.00,1.0706
1112.50,1.0848
1112.00,1.0984
1111.50,1.1119
1111.00,1.1257
1110.50,1.1392
1110.00,1.1520
1109.50,1.1648
1109.00,1.1779
1108.50,1.1907
1108.00,1.2027
1107.50,1.2144
1107.00,1.2264
1106.50,1.2378
1106.00,1.2484
1105.50,1.2591
1105.00,1.2701
1104.50,1.2806
1104.00,1.2900
1103.50,1.2995
1103.00,1.3093
1102.50,1.3186
1102.00,1.3270
1101.50,1.3352
1101.00,1.3440
1100.50,1.3521
1100.00,1.3590
1099.50,1.3658
1099.00,1.3731
1098.50,1.3800
1098.00,1.3857
1097.50,1.3913
1097.00,1.3974
1096.50,1.4028
1096.00,1.4071
1095.50,1.4114
1095.00,1.4164
1094.50,1.4207
1094.00,1.4236
1093.50,1.4264
1093.00,1.4297
1092.50,1.4325
1092.00,1.4343
1091.50,1.4362
1091.00,1.4389
1090.50,1.4407
1090.00,1.4410
1089.50,1.4411
1089.00,1.4419
1088.50,1.4423
1088.00,1.4416
1087.50,1.4412
1087.00,1.4413
1086.50,1.4408
1086.00,1.4390
1085.50,1.4373
1085.00,1.4364
1084.50,1.4351
1084.00,1.4326
1083.50,1.4303
1083.00,1.4286
1082.50,1.4263
1082.00,1.4229
1081.50,1.4198
1081.00,1.4176
1080.50,1.4149
1080.00,1.4111
1079.50,1.4073
1079.00,1.4042
1078.50,1.4009
1078.00,1.3967
1077.50,1.3926
1077.00,1.3890
1076.50,1.3851
1076.00,1.3802
1075.50,1.3756
1075.00,1.3717
1074.50,1.3675
1074.00,1.3624
1073.50,1.3576
1073.00,1.3534
1072.50,1.3490
1072.00,1.3439
1071.50,1.3389
1071.00,1.3345
1070.50,1.3298
1070.00,1.3245
1069.50,1.3196
1069.00,1.3155
1068.50,1.3111
1068.00,1.3058
1067.50,1.3008
1067.00,1.2964
1066.50,1.2920
1066.00,1.2868
1065.50,1.2817
1065.00,1.2772
1064.50,1.2725
1064.00,1.2672
1063.50,1.2621
1063.00,1.2576
1062.50,1.2528
1062.00,1.2475
1061.50,1.2424
1061.00,1.2379
1060.50,1.2331
1060.00,1.2278
1059.50,1.2227
1059.00,1.2183
1058.50,1.2137
1058.00,1.2087
1057.50,1.2039
1057.00,1.1997
1056.50,1.1953
1056.00,1.1904
1055.50,1.1858
1055.00,1.1817
1054.50,1.1775
1054.00,1.1730
1053.50,1.1688
1053.00,1.1653
1052.50,1.1616
1052.00,1.1572
1051.50,1.1528
1051.00,1.1490
1050.50,1.1451
1050.00,1.1410
1049.50,1.1373
1049.00,1.1342
1048.50,1.1311
1048.00,1.1276
1047.50,1.1244
1047.00,1.1219
1046.50,1.1194
1046.00,1.1167
1045.50,1.1142
1045.00,1.1123
1044.50,1.1104
1044.00,1.1083
1043.50,1.1065
1043.00,1.1051
1042.50,1.1038
1042.00,1.1022
1041.50,1.1008
1041.00,1.1001
1040.50,1.0994
1040.00,1.0986
1039.50,1.0980
1039.00,1.0978
1038.50,1.0975
1038.00,1.0971
1037.50,1.0969
1037.00,1.0972
1036.50,1.0974
1036.00,1.0974
1035.50,1.0976
1035.00,1.0983
1034.50,1.0989
1034.00,1.0993
1033.50,1.0998
1033.00,1.1008
1032.50,1.1018
1032.00,1.1025
1031.50,1.1035
1031.00,1.1048
1030.50,1.1061
1030.00,1.1070
1029.50,1.1081
1029.00,1.1095
1028.50,1.1107
1028.00,1.1114
1027.50,1.1123
1027.00,1.1136
1026.50,1.1148
1026.00,1.1156
1025.50,1.1163
1025.00,1.1170
1024.50,1.1176
1024.00,1.1176
1023.50,1.1175
1023.00,1.1175
1022.50,1.1170
1022.00,1.1157
1021.50,1.1140
1021.00,1.1123
1020.50,1.1100
1020.00,1.1068
1019.50,1.1031
1019.00,1.0990
1018.50,1.0941
1018.00,1.0879
1017.50,1.0808
1017.00,1.0730
1016.50,1.0643
1016.00,1.0541
1015.50,1.0430
1015.00,1.0309
1014.50,1.0176
1014.00,1.0029
1013.50,0.9872
1013.00,0.9706
1012.50,0.9530
1012.00,0.9342
1011.50,0.9146
1011.00,0.8945
1010.50,0.8736
1010.00,0.8520
1009.50,0.8300
1009.00,0.8080
1008.50,0.7858
1008.00,0.7635
1007.50,0.7412
1007.00,0.7192
1006.50,0.6975
1006.00,0.6759
1005.50,0.6547
1005.00,0.6341
1004.50,0.6139
1004.00,0.5941
1003.50,0.5750
1003.00,0.5564
1002.50,0.5385
1002.00,0.5211
1001.50,0.5044
1001.00,0.4883
1000.50,0.4729
1000.00,0.4581
999.50,0.4439
999.00,0.4303
998.50,0.4174
998.00,0.4049
997.50,0.3931
997.00,0.3817
996.50,0.3709
996.00,0.3605
995.50,0.3505
995.00,0.3410
994.50,0.3319
994.00,0.3232
993.50,0.3149
993.00,0.3069
992.50,0.2992
992.00,0.2918
991.50,0.2847
991.00,0.2779
990.50,0.2714
990.00,0.2651
989.50,0.2590
989.00,0.2533
988.50,0.2477
988.00,0.2423
987.50,0.2372
987.00,0.2322
986.50,0.2274
986.00,0.2228
985.50,0.2184
985.00,0.2141
984.50,0.2100
984.00,0.2060
983.50,0.2022
983.00,0.1985
982.50,0.1949
982.00,0.1915
981.50,0.1882
981.00,0.1850
980.50,0.1819
980.00,0.1789
979.50,0.1760
979.00,0.1733
978.50,0.1706
978.00,0.1680
977.50,0.1655
977.00,0.1631
976.50,0.1608
976.00,0.1586
975.50,0.1564
975.00,0.1543
974.50,0.1523
974.00,0.1504
973.50,0.1485
973.00,0.1467
972.50,0.1449
972.00,0.1432
971.50,0.1416
971.00,0.1401
970.50,0.1385
970.00,0.1371
969.50,0.1357
969.00,0.1343
968.50,0.1331
968.00,0.1319
967.50,0.1307
967.00,0.1296
966.50,0.1286
966.00,0.1276
965.50,0.1267
965.00,0.1258
964.50,0.1250
964.00,0.1243
963.50,0.1235
963.00,0.1229
962.50,0.1222
962.00,0.1216
961.50,0.1211
961.00,0.1205
960.50,0.1199
960.00,0.1194
959.50,0.1188
959.00,0.1182
958.50,0.1176
958.00,0.1170
957.50,0.1163
957.00,0.1158
956.50,0.1152
956.00,0.1146
955.50,0.1140
955.00,0.1132
954.50,0.1124
954.00,0.1115
953.50,0.1105
953.00,0.1095
952.50,0.1085
952.00,0.1074
951.50,0.1064
951.00,0.1054
950.50,0.1044
950.00,0.1035
949.50,0.1026
949.00,0.1017
948.50,0.1010
948.00,0.1003
947.50,0.0996
947.00,0.0990
946.50,0.0985
946.00,0.0979
945.50,0.0974
945.00,0.0970
944.50,0.0966
944.00,0.0962
943.50,0.0959
943.00,0.0955
942.50,0.0952
942.00,0.0950
941.50,0.0948
941.00,0.0946
940.50,0.0944
940.00,0.0943
939.50,0.0942
939.00,0.0941
938.50,0.0941
938.00,0.0941
937.50,0.0941
937.00,0.0942
936.50,0.0942
936.00,0.0944
935.50,0.0945
935.00,0.0948
934.50,0.0950
934.00,0.0953
933.50,0.0956
933.00,0.0960
932.50,0.0964
932.00,0.0969
931.50,0.0974
931.00,0.0980
930.50,0.0985
930.00,0.0991
929.50,0.0998
929.00,0.1005
928.50,0.1012
928.00,0.1019
927.50,0.1026
927.00,0.1033
926.50,0.1040
926.00,0.1047
925.50,0.1054
925.00,0.1062
924.50,0.1071
924.00,0.1080
923.50,0.1090
923.00,0.1101
922.50,0.1113
922.00,0.1126
921.50,0.1140
921.00,0.1155
920.50,0.1172
920.00,0.1190
919.50,0.1209
919.00,0.1229
918.50,0.1249
918.00,0.1269
917.50,0.1290
917.00,0.1310
916.50,0.1329
916.00,0.1348
915.50,0.1366
915.00,0.1383
914.50,0.1398
914.00,0.1412
913.50,0.1425
913.00,0.1435
912.50,0.1444
912.00,0.1452
911.50,0.1457
911.00,0.1460
910.50,0.1462
910.00,0.1461
909.50,0.1460
909.00,0.1458
908.50,0.1455
908.00,0.1452
907.50,0.1449
907.00,0.1446
906.50,0.1444
906.00,0.1442
905.50,0.1442
905.00,0.1442
904.50,0.1444
904.00,0.1447
903.50,0.1451
903.00,0.1457
902.50,0.1464
902.00,0.1473
901.50,0.1484
901.00,0.1496
900.50,0.1510
900.00,0.1525
899.50,0.1541
899.00,0.1559
898.50,0.1578
898.00,0.1598
897.50,0.1619
897.00,0.1641
896.50,0.1664
896.00,0.1687
895.50,0.1712
895.00,0.1737
894.50,0.1763
894.00,0.1789
893.50,0.1816
893.00,0.1844
892.50,0.1872
892.00,0.1901
891.50,0.1932
891.00,0.1963
890.50,0.1995
890.00,0.2029
889.50,0.2064
889.00,0.2101
888.50,0.2140
888.00,0.2181
887.50,0.2224
887.00,0.2270
886.50,0.2319
886.00,0.2370
885.50,0.2424
885.00,0.2481
884.50,0.2541
884.00,0.2603
883.50,0.2668
883.00,0.2735
882.50,0.2805
882.00,0.2877
881.50,0.2951
881.00,0.3027
880.50,0.3106
880.00,0.3188
879.50,0.3273
879.00,0.3360
878.50,0.3451
878.00,0.3543
877.50,0.3639
877.00,0.3739
876.50,0.3841
876.00,0.3947
875.50,0.4055
875.00,0.4167
874.50,0.4281
874.00,0.4396
873.50,0.4512
873.00,0.4629
872.50,0.4745
872.00,0.4857
871.50,0.4966
871.00,0.5071
870.50,0.5170
870.00,0.5260
869.50,0.5341
869.00,0.5412
868.50,0.5473
868.00,0.5522
867.50,0.5559
867.00,0.5585
866.50,0.5600
866.00,0.5604
865.50,0.5598
865.00,0.5584
864.50,0.5562
864.00,0.5533
863.50,0.5500
863.00,0.5463
862.50,0.5424
862.00,0.5383
861.50,0.5341
861.00,0.5300
860.50,0.5261
860.00,0.5225
859.50,0.5194
859.00,0.5167
858.50,0.5147
858.00,0.5132
857.50,0.5125
857.00,0.5126
856.50,0.5136
856.00,0.5154
855.50,0.5180
855.00,0.5216
854.50,0.5259
854.00,0.5311
853.50,0.5370
853.00,0.5437
852.50,0.5511
852.00,0.5589
851.50,0.5671
851.00,0.5755
850.50,0.5840
850.00,0.5925
849.50,0.6007
849.00,0.6086
848.50,0.6160
848.00,0.6226
847.50,0.6283
847.00,0.6331
846.50,0.6370
846.00,0.6396
845.50,0.6409
845.00,0.6411
844.50,0.6401
844.00,0.6378
843.50,0.6343
843.00,0.6299
842.50,0.6245
842.00,0.6183
841.50,0.6114
841.00,0.6041
840.50,0.5966
840.00,0.5888
839.50,0.5811
839.00,0.5737
838.50,0.5666
838.00,0.5598
837.50,0.5536
837.00,0.5481
836.50,0.5432
836.00,0.5392
835.50,0.5360
835.00,0.5338
834.50,0.5325
834.00,0.5321
833.50,0.5327
833.00,0.5343
832.50,0.5370
832.00,0.5407
831.50,0.5455
831.00,0.5515
830.50,0.5587
830.00,0.5670
829.50,0.5765
829.00,0.5874
828.50,0.5995
828.00,0.6129
827.50,0.6274
827.00,0.6433
826.50,0.6603
826.00,0.6781
825.50,0.6966
825.00,0.7157
824.50,0.7351
824.00,0.7542
823.50,0.7730
823.00,0.7912
822.50,0.8086
822.00,0.8247
821.50,0.8394
821.00,0.8530
820.50,0.8654
820.00,0.8765
819.50,0.8864
819.00,0.8957
818.50,0.9043
818.00,0.9122
817.50,0.9198
817.00,0.9275
816.50,0.9353
816.00,0.9431
815.50,0.9512
815.00,0.9601
814.50,0.9697
814.00,0.9796
813.50,0.9900
813.00,1.0012
812.50,1.0130
812.00,1.0252
811.50,1.0379
811.00,1.0513
810.50,1.0651
810.00,1.0787
809.50,1.0924
809.00,1.1065
808.50,1.1205
808.00,1.1338
807.50,1.1464
807.00,1.1590
806.50,1.1713
806.00,1.1828
805.50,1.1934
805.00,1.2035
804.50,1.2126
804.00,1.2200
803.50,1.2259
803.00,1.2310
802.50,1.2352
802.00,1.2377
801.50,1.2387
801.00,1.2388
800.50,1.2374
800.00,1.2339
799.50,1.2286
799.00,1.2219
798.50,1.2137
798.00,1.2034
797.50,1.1916
797.00,1.1788
796.50,1.1647
796.00,1.1488
795.50,1.1314
795.00,1.1130
794.50,1.0934
794.00,1.0722
793.50,1.0497
793.00,1.0263
792.50,1.0019
792.00,0.9763
791.50,0.9497
791.00,0.9226
790.50,0.8949
790.00,0.8666
789.50,0.8380
789.00,0.8094
788.50,0.7809
788.00,0.7525
787.50,0.7243
787.00,0.6965
786.50,0.6692
786.00,0.6424
785.50,0.6165
785.00,0.5915
784.50,0.5675
784.00,0.5444
783.50,0.5223
783.00,0.5013
782.50,0.4814
782.00,0.4625
781.50,0.4448
781.00,0.4281
780.50,0.4124
780.00,0.3977
779.50,0.3838
779.00,0.3707
778.50,0.3585
778.00,0.3471
777.50,0.3365
777.00,0.3267
776.50,0.3177
776.00,0.3094
775.50,0.3019
775.00,0.2950
774.50,0.2888
774.00,0.2831
773.50,0.2779
773.00,0.2732
772.50,0.2690
772.00,0.2652
771.50,0.2618
771.00,0.2588
770.50,0.2562
770.00,0.2539
769.50,0.2520
769.00,0.2504
768.50,0.2491
768.00,0.2481
767.50,0.2475
767.00,0.2472
766.50,0.2472
766.00,0.2476
765.50,0.2484
765.00,0.2495
764.50,0.2512
764.00,0.2532
763.50,0.2557
763.00,0.2586
762.50,0.2619
762.00,0.2656
761.50,0.2696
761.00,0.2738
760.50,0.2781
760.00,0.2822
759.50,0.2860
759.00,0.2892
758.50,0.2916
758.00,0.2929
757.50,0.2930
757.00,0.2916
756.50,0.2888
756.00,0.2846
755.50,0.2791
755.00,0.2724
754.50,0.2649
754.00,0.2568
753.50,0.2483
753.00,0.2396
752.50,0.2311
752.00,0.2229
751.50,0.2150
751.00,0.2076
750.50,0.2006
750.00,0.1943
749.50,0.1884
749.00,0.1831
748.50,0.1783
748.00,0.1739
747.50,0.1699
747.00,0.1663
746.50,0.1631
746.00,0.1602
745.50,0.1575
745.00,0.1551
744.50,0.1529
744.00,0.1509
743.50,0.1491
743.00,0.1474
742.50,0.1457
742.00,0.1442
741.50,0.1428
741.00,0.1415
740.50,0.1402
740.00,0.1389
739.50,0.1377
739.00,0.1366
738.50,0.1355
738.00,0.1344
737.50,0.1334
737.00,0.1325
736.50,0.1316
736.00,0.1308
735.50,0.1301
735.00,0.1293
734.50,0.1287
734.00,0.1281
733.50,0.1275
733.00,0.1270
732.50,0.1265
732.00,0.1261
731.50,0.1257
731.00,0.1253
730.50,0.1250
730.00,0.1247
729.50,0.1245
729.00,0.1243
728.50,0.1241
728.00,0.1239
727.50,0.1238
727.00,0.1236
726.50,0.1235
726.00,0.1234
725.50,0.1233
725.00,0.1233
724.50,0.1233
724.00,0.1233
723.50,0.1233
723.00,0.1234
722.50,0.1235
722.00,0.1237
721.50,0.1238
721.00,0.1241
720.50,0.1243
720.00,0.1247
719.50,0.1252
719.00,0.1257
718.50,0.1262
718.00,0.1269
717.50,0.1276
717.00,0.1285
716.50,0.1295
716.00,0.1306
715.50,0.1319
715.00,0.1334
714.50,0.1350
714.00,0.1369
713.50,0.1391
713.00,0.1414
712.50,0.1439
712.00,0.1466
711.50,0.1495
711.00,0.1526
710.50,0.1558
710.00,0.1591
709.50,0.1624
709.00,0.1656
708.50,0.1687
708.00,0.1716
707.50,0.1743
707.00,0.1767
706.50,0.1789
706.00,0.1807
705.50,0.1821
705.00,0.1833
704.50,0.1843
704.00,0.1850
703.50,0.1855
703.00,0.1858
702.50,0.1859
702.00,0.1858
701.50,0.1857
701.00,0.1854
700.50,0.1851
700.00,0.1848
699.50,0.1844
699.00,0.1841
698.50,0.1838
698.00,0.1835
697.50,0.1832
697.00,0.1830
696.50,0.1829
696.00,0.1828
695.50,0.1828
695.00,0.1828
694.50,0.1829
694.00,0.1830
693.50,0.1832
693.00,0.1833
692.50,0.1835
692.00,0.1836
691.50,0.1837
691.00,0.1837
690.50,0.1837
690.00,0.1835
689.50,0.1833
689.00,0.1828
688.50,0.1822
688.00,0.1814
687.50,0.1803
687.00,0.1791
686.50,0.1777
686.00,0.1760
685.50,0.1741
685.00,0.1720
684.50,0.1699
684.00,0.1678
683.50,0.1655
683.00,0.1633
682.50,0.1610
682.00,0.1587
681.50,0.1566
681.00,0.1545
680.50,0.1526
680.00,0.1508
679.50,0.1490
679.00,0.1474
678.50,0.1458
678.00,0.1444
677.50,0.1431
677.00,0.1419
676.50,0.1407
676.00,0.1397
675.50,0.1388
675.00,0.1379
674.50,0.1371
674.00,0.1364
673.50,0.1358
673.00,0.1352
672.50,0.1346
672.00,0.1342
671.50,0.1339
671.00,0.1337
670.50,0.1336
670.00,0.1337
669.50,0.1338
669.00,0.1340
668.50,0.1343
668.00,0.1347
667.50,0.1350
667.00,0.1351
666.50,0.1351
666.00,0.1350
665.50,0.1351
665.00,0.1354
664.50,0.1360
664.00,0.1367
663.50,0.1375
663.00,0.1384
662.50,0.1393
662.00,0.1401
661.50,0.1406
661.00,0.1409
660.50,0.1405
660.00,0.1393
659.50,0.1370
659.00,0.1336
658.50,0.1291
658.00,0.1239
657.50,0.1184
657.00,0.1131
656.50,0.1082
656.00,0.1039
655.50,0.1002
655.00,0.0971
654.50,0.0946
654.00,0.0926
653.50,0.0908
653.00,0.0893
652.50,0.0881
652.00,0.0871
651.50,0.0863
651.00,0.0856
650.50,0.0850
650.00,0.0844
649.50,0.0839
649.00,0.0835
648.50,0.0832
648.00,0.0830
647.50,0.0827
647.00,0.0825
646.50,0.0825
646.00,0.0824
645.50,0.0824
645.00,0.0825
644.50,0.0825
644.00,0.0826
643.50,0.0826
643.00,0.0827
642.50,0.0829
642.00,0.0831
641.50,0.0833
641.00,0.0834
640.50,0.0836
640.00,0.0838
639.50,0.0840
639.00,0.0843
638.50,0.0847
638.00,0.0849
637.50,0.0852
637.00,0.0855
636.50,0.0857
636.00,0.0859
635.50,0.0861
635.00,0.0863
634.50,0.0866
634.00,0.0868
633.50,0.0870
633.00,0.0872
632.50,0.0875
632.00,0.0877
631.50,0.0879
631.00,0.0880
630.50,0.0881
630.00,0.0881
629.50,0.0882
629.00,0.0883
628.50,0.0884
628.00,0.0885
627.50,0.0885
627.00,0.0885
626.50,0.0885
626.00,0.0885
625.50,0.0884
625.00,0.0884
624.50,0.0884
624.00,0.0883
623.50,0.0883
623.00,0.0882
622.50,0.0882
622.00,0.0881
621.50,0.0881
621.00,0.0880
620.50,0.0879
620.00,0.0879
619.50,0.0878
619.00,0.0877
618.50,0.0877
618.00,0.0877
617.50,0.0877
617.00,0.0876
616.50,0.0876
616.00,0.0877
615.50,0.0878
615.00,0.0878
614.50,0.0879
614.00,0.0879
613.50,0.0879
613.00,0.0879
612.50,0.0880
612.00,0.0881
611.50,0.0882
611.00,0.0884
610.50,0.0886
610.00,0.0889
609.50,0.0893
609.00,0.0899
608.50,0.0905
608.00,0.0913
607.50,0.0923
607.00,0.0933
606.50,0.0946
606.00,0.0960
605.50,0.0976
605.00,0.0992
604.50,0.1010
604.00,0.1029
603.50,0.1048
603.00,0.1067
602.50,0.1084
602.00,0.1099
601.50,0.1111
601.00,0.1119
600.50,0.1124
600.00,0.1126
