Created as New Dataset,Sample 010 By USER Date 3 9 2009
cm-1,A
4000.00,0.0347
3999.50,0.0347
3999.00,0.0346
3998.50,0.0346
3998.00,0.0346
3997.50,0.0346
3997.00,0.0346
3996.50,0.0346
3996.00,0.0346
3995.50,0.0346
3995.00,0.0346
3994.50,0.0346
3994.00,0.0346
3993.50,0.0346
3993.00,0.0346
3992.50,0.0346
3992.00,0.0345
3991.50,0.0345
3991.00,0.0345
3990.50,0.0345
3990.00,0.0345
3989.50,0.0345
3989.00,0.0345
3988.50,0.0345
3988.00,0.0345
3987.50,0.0345
3987.00,0.0344
3986.50,0.0344
3986.00,0.0344
3985.50,0.0344
3985.00,0.0344
3984.50,0.0343
3984.00,0.0343
3983.50,0.0343
3983.00,0.0343
3982.50,0.0343
3982.00,0.0343
3981.50,0.0343
3981.00,0.0343
3980.50,0.0343
3980.00,0.0343
3979.50,0.0343
3979.00,0.0343
3978.50,0.0343
3978.00,0.0343
3977.50,0.0342
3977.00,0.0342
3976.50,0.0342
3976.00,0.0342
3975.50,0.0342
3975.00,0.0342
3974.50,0.0342
3974.00,0.0342
3973.50,0.0342
3973.00,0.0342
3972.50,0.0342
3972.00,0.0342
3971.50,0.0342
3971.00,0.0341
3970.50,0.0341
3970.00,0.0341
3969.50,0.0341
3969.00,0.0341
3968.50,0.0341
3968.00,0.0341
3967.50,0.0341
3967.00,0.0341
3966.50,0.0341
3966.00,0.0341
3965.50,0.0341
3965.00,0.0341
3964.50,0.0340
3964.00,0.0340
3963.50,0.0340
3963.00,0.0340
3962.50,0.0340
3962.00,0.0339
3961.50,0.0339
3961.00,0.0340
3960.50,0.0340
3960.00,0.0340
3959.50,0.0340
3959.00,0.0340
3958.50,0.0340
3958.00,0.0340
3957.50,0.0340
3957.00,0.0340
3956.50,0.0340
3956.00,0.0340
3955.50,0.0340
3955.00,0.0340
3954.50,0.0340
3954.00,0.0340
3953.50,0.0340
3953.00,0.0340
3952.50,0.0340
3952.00,0.0340
3951.50,0.0340
3951.00,0.0340
3950.50,0.0340
3950.00,0.0340
3949.50,0.0339
3949.00,0.0338
3948.50,0.0338
3948.00,0.0337
3947.50,0.0337
3947.00,0.0337
3946.50,0.0337
3946.00,0.0338
3945.50,0.0338
3945.00,0.0339
3944.50,0.0339
3944.00,0.0339
3943.50,0.0339
3943.00,0.0339
3942.50,0.0339
3942.00,0.0339
3941.50,0.0339
3941.00,0.0339
3940.50,0.0339
3940.00,0.0339
3939.50,0.0339
3939.00,0.0339
3938.50,0.0339
3938.00,0.0338
3937.50,0.0338
3937.00,0.0338
3936.50,0.0338
3936.00,0.0338
3935.50,0.0338
3935.00,0.0337
3934.50,0.0337
3934.00,0.0336
3933.50,0.0336
3933.00,0.0335
3932.50,0.0335
3932.00,0.0335
3931.50,0.0336
3931.00,0.0337
3930.50,0.0338
3930.00,0.0339
3929.50,0.0339
3929.00,0.0339
3928.50,0.0338
3928.00,0.0338
3927.50,0.0338
3927.00,0.0338
3926.50,0.0339
3926.00,0.0340
3925.50,0.0340
3925.00,0.0340
3924.50,0.0340
3924.00,0.0339
3923.50,0.0339
3923.00,0.0338
3922.50,0.0338
3922.00,0.0338
3921.50,0.0337
3921.00,0.0337
3920.50,0.0337
3920.00,0.0337
3919.50,0.0337
3919.00,0.0336
3918.50,0.0336
3918.00,0.0335
3917.50,0.0335
3917.00,0.0335
3916.50,0.0336
3916.00,0.0337
3915.50,0.0338
3915.00,0.0338
3914.50,0.0338
3914.00,0.0338
3913.50,0.0338
3913.00,0.0338
3912.50,0.0338
3912.00,0.0338
3911.50,0.0338
3911.00,0.0338
3910.50,0.0338
3910.00,0.0338
3909.50,0.0338
3909.00,0.0338
3908.50,0.0339
3908.00,0.0339
3907.50,0.0339
3907.00,0.0339
3906.50,0.0340
3906.00,0.0342
3905.50,0.0343
3905.00,0.0343
3904.50,0.0342
3904.00,0.0340
3903.50,0.0337
3903.00,0.0336
3902.50,0.0335
3902.00,0.0335
3901.50,0.0334
3901.00,0.0335
3900.50,0.0337
3900.00,0.0339
3899.50,0.0341
3899.00,0.0341
3898.50,0.0342
3898.00,0.0342
3897.50,0.0341
3897.00,0.0341
3896.50,0.0340
3896.00,0.0340
3895.50,0.0340
3895.00,0.0340
3894.50,0.0341
3894.00,0.0341
3893.50,0.0342
3893.00,0.0343
3892.50,0.0344
3892.00,0.0345
3891.50,0.0345
3891.00,0.0344
3890.50,0.0343
3890.00,0.0342
3889.50,0.0341
3889.00,0.0340
3888.50,0.0340
3888.00,0.0339
3887.50,0.0339
3887.00,0.0339
3886.50,0.0339
3886.00,0.0338
3885.50,0.0338
3885.00,0.0339
3884.50,0.0340
3884.00,0.0341
3883.50,0.0342
3883.00,0.0342
3882.50,0.0341
3882.00,0.0342
3881.50,0.0343
3881.00,0.0343
3880.50,0.0343
3880.00,0.0342
3879.50,0.0342
3879.00,0.0342
3878.50,0.0342
3878.00,0.0342
3877.50,0.0342
3877.00,0.0342
3876.50,0.0342
3876.00,0.0342
3875.50,0.0343
3875.00,0.0344
3874.50,0.0344
3874.00,0.0344
3873.50,0.0344
3873.00,0.0344
3872.50,0.0344
3872.00,0.0344
3871.50,0.0345
3871.00,0.0344
3870.50,0.0344
3870.00,0.0344
3869.50,0.0343
3869.00,0.0343
3868.50,0.0343
3868.00,0.0344
3867.50,0.0344
3867.00,0.0345
3866.50,0.0345
3866.00,0.0346
3865.50,0.0347
3865.00,0.0347
3864.50,0.0346
3864.00,0.0346
3863.50,0.0347
3863.00,0.0347
3862.50,0.0347
3862.00,0.0347
3861.50,0.0347
3861.00,0.0346
3860.50,0.0346
3860.00,0.0345
3859.50,0.0345
3859.00,0.0345
3858.50,0.0346
3858.00,0.0347
3857.50,0.0349
3857.00,0.0351
3856.50,0.0353
3856.00,0.0356
3855.50,0.0360
3855.00,0.0363
3854.50,0.0364
3854.00,0.0362
3853.50,0.0361
3853.00,0.0359
3852.50,0.0358
3852.00,0.0356
3851.50,0.0355
3851.00,0.0354
3850.50,0.0354
3850.00,0.0354
3849.50,0.0354
3849.00,0.0354
3848.50,0.0354
3848.00,0.0355
3847.50,0.0355
3847.00,0.0355
3846.50,0.0356
3846.00,0.0357
3845.50,0.0358
3845.00,0.0360
3844.50,0.0361
3844.00,0.0361
3843.50,0.0361
3843.00,0.0361
3842.50,0.0361
3842.00,0.0362
3841.50,0.0363
3841.00,0.0363
3840.50,0.0364
3840.00,0.0365
3839.50,0.0366
3839.00,0.0368
3838.50,0.0369
3838.00,0.0369
3837.50,0.0369
3837.00,0.0370
3836.50,0.0370
3836.00,0.0371
3835.50,0.0372
3835.00,0.0372
3834.50,0.0372
3834.00,0.0372
3833.50,0.0372
3833.00,0.0373
3832.50,0.0373
3832.00,0.0373
3831.50,0.0372
3831.00,0.0372
3830.50,0.0372
3830.00,0.0373
3829.50,0.0373
3829.00,0.0373
3828.50,0.0373
3828.00,0.0373
3827.50,0.0374
3827.00,0.0375
3826.50,0.0375
3826.00,0.0375
3825.50,0.0375
3825.00,0.0375
3824.50,0.0375
3824.00,0.0375
3823.50,0.0376
3823.00,0.0376
3822.50,0.0377
3822.00,0.0377
3821.50,0.0378
3821.00,0.0379
3820.50,0.0380
3820.00,0.0380
3819.50,0.0379
3819.00,0.0379
3818.50,0.0378
3818.00,0.0378
3817.50,0.0378
3817.00,0.0378
3816.50,0.0379
3816.00,0.0379
3815.50,0.0380
3815.00,0.0380
3814.50,0.0380
3814.00,0.0380
3813.50,0.0380
3813.00,0.0380
3812.50,0.0381
3812.00,0.0381
3811.50,0.0380
3811.00,0.0380
3810.50,0.0380
3810.00,0.0381
3809.50,0.0382
3809.00,0.0383
3808.50,0.0384
3808.00,0.0386
3807.50,0.0387
3807.00,0.0387
3806.50,0.0386
3806.00,0.0385
3805.50,0.0385
3805.00,0.0385
3804.50,0.0385
3804.00,0.0385
3803.50,0.0386
3803.00,0.0387
3802.50,0.0389
3802.00,0.0391
3801.50,0.0393
3801.00,0.0394
3800.50,0.0394
3800.00,0.0393
3799.50,0.0393
3799.00,0.0393
3798.50,0.0393
3798.00,0.0393
3797.50,0.0393
3797.00,0.0393
3796.50,0.0393
3796.00,0.0394
3795.50,0.0394
3795.00,0.0395
3794.50,0.0396
3794.00,0.0397
3793.50,0.0397
3793.00,0.0398
3792.50,0.0399
3792.00,0.0399
3791.50,0.0400
3791.00,0.0400
3790.50,0.0401
3790.00,0.0402
3789.50,0.0403
3789.00,0.0405
3788.50,0.0406
3788.00,0.0407
3787.50,0.0408
3787.00,0.0408
3786.50,0.0409
3786.00,0.0410
3785.50,0.0412
3785.00,0.0413
3784.50,0.0414
3784.00,0.0415
3783.50,0.0416
3783.00,0.0416
3782.50,0.0417
3782.00,0.0418
3781.50,0.0419
3781.00,0.0420
3780.50,0.0421
3780.00,0.0422
3779.50,0.0423
3779.00,0.0424
3778.50,0.0425
3778.00,0.0426
3777.50,0.0427
3777.00,0.0428
3776.50,0.0428
3776.00,0.0429
3775.50,0.0429
3775.00,0.0430
3774.50,0.0431
3774.00,0.0431
3773.50,0.0432
3773.00,0.0433
3772.50,0.0434
3772.00,0.0435
3771.50,0.0436
3771.00,0.0436
3770.50,0.0437
3770.00,0.0437
3769.50,0.0437
3769.00,0.0438
3768.50,0.0439
3768.00,0.0439
3767.50,0.0439
3767.00,0.0439
3766.50,0.0440
3766.00,0.0440
3765.50,0.0441
3765.00,0.0441
3764.50,0.0442
3764.00,0.0442
3763.50,0.0442
3763.00,0.0443
3762.50,0.0443
3762.00,0.0443
3761.50,0.0443
3761.00,0.0443
3760.50,0.0443
3760.00,0.0443
3759.50,0.0443
3759.00,0.0444
3758.50,0.0444
3758.00,0.0444
3757.50,0.0444
3757.00,0.0444
3756.50,0.0443
3756.00,0.0442
3755.50,0.0442
3755.00,0.0442
3754.50,0.0442
3754.00,0.0442
3753.50,0.0442
3753.00,0.0442
3752.50,0.0441
3752.00,0.0441
3751.50,0.0442
3751.00,0.0442
3750.50,0.0442
3750.00,0.0442
3749.50,0.0441
3749.00,0.0440
3748.50,0.0439
3748.00,0.0438
3747.50,0.0437
3747.00,0.0436
3746.50,0.0435
3746.00,0.0435
3745.50,0.0435
3745.00,0.0434
3744.50,0.0435
3744.00,0.0436
3743.50,0.0435
3743.00,0.0434
3742.50,0.0433
3742.00,0.0431
3741.50,0.0430
3741.00,0.0428
3740.50,0.0427
3740.00,0.0425
3739.50,0.0425
3739.00,0.0424
3738.50,0.0424
3738.00,0.0423
3737.50,0.0423
3737.00,0.0422
3736.50,0.0423
3736.00,0.0424
3735.50,0.0425
3735.00,0.0426
3734.50,0.0427
3734.00,0.0428
3733.50,0.0429
3733.00,0.0430
3732.50,0.0431
3732.00,0.0431
3731.50,0.0432
3731.00,0.0433
3730.50,0.0433
3730.00,0.0434
3729.50,0.0434
3729.00,0.0434
3728.50,0.0435
3728.00,0.0435
3727.50,0.0436
3727.00,0.0437
3726.50,0.0438
3726.00,0.0439
3725.50,0.0441
3725.00,0.0443
3724.50,0.0444
3724.00,0.0445
3723.50,0.0446
3723.00,0.0447
3722.50,0.0449
3722.00,0.0450
3721.50,0.0451
3721.00,0.0452
3720.50,0.0454
3720.00,0.0455
3719.50,0.0456
3719.00,0.0458
3718.50,0.0459
3718.00,0.0460
3717.50,0.0461
3717.00,0.0462
3716.50,0.0462
3716.00,0.0463
3715.50,0.0465
3715.00,0.0466
3714.50,0.0468
3714.00,0.0469
3713.50,0.0470
3713.00,0.0471
3712.50,0.0473
3712.00,0.0476
3711.50,0.0479
3711.00,0.0482
3710.50,0.0484
3710.00,0.0485
3709.50,0.0486
3709.00,0.0487
3708.50,0.0488
3708.00,0.0489
3707.50,0.0490
3707.00,0.0491
3706.50,0.0492
3706.00,0.0493
3705.50,0.0494
3705.00,0.0496
3704.50,0.0497
3704.00,0.0498
3703.50,0.0498
3703.00,0.0499
3702.50,0.0500
3702.00,0.0501
3701.50,0.0502
3701.00,0.0502
3700.50,0.0502
3700.00,0.0501
3699.50,0.0501
3699.00,0.0500
3698.50,0.0499
3698.00,0.0499
3697.50,0.0499
3697.00,0.0498
3696.50,0.0497
3696.00,0.0496
3695.50,0.0495
3695.00,0.0495
3694.50,0.0494
3694.00,0.0494
3693.50,0.0493
3693.00,0.0492
3692.50,0.0491
3692.00,0.0490
3691.50,0.0489
3691.00,0.0489
3690.50,0.0489
3690.00,0.0488
3689.50,0.0487
3689.00,0.0485
3688.50,0.0482
3688.00,0.0480
3687.50,0.0479
3687.00,0.0478
3686.50,0.0477
3686.00,0.0476
3685.50,0.0475
3685.00,0.0474
3684.50,0.0473
3684.00,0.0472
3683.50,0.0471
3683.00,0.0470
3682.50,0.0469
3682.00,0.0468
3681.50,0.0467
3681.00,0.0467
3680.50,0.0467
3680.00,0.0467
3679.50,0.0466
3679.00,0.0466
3678.50,0.0465
3678.00,0.0465
3677.50,0.0465
3677.00,0.0464
3676.50,0.0463
3676.00,0.0462
3675.50,0.0463
3675.00,0.0465
3674.50,0.0466
3674.00,0.0467
3673.50,0.0466
3673.00,0.0465
3672.50,0.0465
3672.00,0.0465
3671.50,0.0465
3671.00,0.0466
3670.50,0.0467
3670.00,0.0469
3669.50,0.0470
3669.00,0.0471
3668.50,0.0471
3668.00,0.0471
3667.50,0.0472
3667.00,0.0472
3666.50,0.0471
3666.00,0.0471
3665.50,0.0471
3665.00,0.0472
3664.50,0.0472
3664.00,0.0473
3663.50,0.0474
3663.00,0.0476
3662.50,0.0477
3662.00,0.0477
3661.50,0.0478
3661.00,0.0478
3660.50,0.0479
3660.00,0.0480
3659.50,0.0481
3659.00,0.0482
3658.50,0.0483
3658.00,0.0484
3657.50,0.0485
3657.00,0.0486
3656.50,0.0487
3656.00,0.0489
3655.50,0.0490
3655.00,0.0491
3654.50,0.0492
3654.00,0.0492
3653.50,0.0492
3653.00,0.0493
3652.50,0.0494
3652.00,0.0494
3651.50,0.0494
3651.00,0.0494
3650.50,0.0495
3650.00,0.0497
3649.50,0.0498
3649.00,0.0499
3648.50,0.0500
3648.00,0.0501
3647.50,0.0502
3647.00,0.0503
3646.50,0.0504
3646.00,0.0504
3645.50,0.0504
3645.00,0.0504
3644.50,0.0504
3644.00,0.0504
3643.50,0.0505
3643.00,0.0505
3642.50,0.0506
3642.00,0.0506
3641.50,0.0505
3641.00,0.0505
3640.50,0.0505
3640.00,0.0505
3639.50,0.0505
3639.00,0.0504
3638.50,0.0504
3638.00,0.0502
3637.50,0.0501
3637.00,0.0499
3636.50,0.0498
3636.00,0.0498
3635.50,0.0498
3635.00,0.0498
3634.50,0.0497
3634.00,0.0497
3633.50,0.0496
3633.00,0.0496
3632.50,0.0495
3632.00,0.0495
3631.50,0.0494
3631.00,0.0494
3630.50,0.0493
3630.00,0.0491
3629.50,0.0490
3629.00,0.0489
3628.50,0.0490
3628.00,0.0490
3627.50,0.0490
3627.00,0.0489
3626.50,0.0488
3626.00,0.0487
3625.50,0.0486
3625.00,0.0485
3624.50,0.0485
3624.00,0.0484
3623.50,0.0484
3623.00,0.0484
3622.50,0.0484
3622.00,0.0485
3621.50,0.0485
3621.00,0.0486
3620.50,0.0487
3620.00,0.0487
3619.50,0.0487
3619.00,0.0486
3618.50,0.0486
3618.00,0.0485
3617.50,0.0484
3617.00,0.0483
3616.50,0.0483
3616.00,0.0482
3615.50,0.0482
3615.00,0.0482
3614.50,0.0482
3614.00,0.0482
3613.50,0.0482
3613.00,0.0483
3612.50,0.0483
3612.00,0.0483
3611.50,0.0483
3611.00,0.0483
3610.50,0.0482
3610.00,0.0481
3609.50,0.0480
3609.00,0.0480
3608.50,0.0481
3608.00,0.0482
3607.50,0.0483
3607.00,0.0484
3606.50,0.0484
3606.00,0.0485
3605.50,0.0485
3605.00,0.0485
3604.50,0.0486
3604.00,0.0486
3603.50,0.0486
3603.00,0.0486
3602.50,0.0486
3602.00,0.0487
3601.50,0.0487
3601.00,0.0487
3600.50,0.0487
3600.00,0.0487
3599.50,0.0487
3599.00,0.0488
3598.50,0.0488
3598.00,0.0487
3597.50,0.0487
3597.00,0.0487
3596.50,0.0487
3596.00,0.0487
3595.50,0.0487
3595.00,0.0487
3594.50,0.0488
3594.00,0.0488
3593.50,0.0488
3593.00,0.0488
3592.50,0.0488
3592.00,0.0487
3591.50,0.0487
3591.00,0.0486
3590.50,0.0485
3590.00,0.0484
3589.50,0.0483
3589.00,0.0483
3588.50,0.0483
3588.00,0.0484
3587.50,0.0484
3587.00,0.0484
3586.50,0.0484
3586.00,0.0483
3585.50,0.0483
3585.00,0.0483
3584.50,0.0483
3584.00,0.0483
3583.50,0.0482
3583.00,0.0482
3582.50,0.0481
3582.00,0.0481
3581.50,0.0480
3581.00,0.0480
3580.50,0.0480
3580.00,0.0480
3579.50,0.0479
3579.00,0.0479
3578.50,0.0479
3578.00,0.0478
3577.50,0.0477
3577.00,0.0477
3576.50,0.0476
3576.00,0.0475
3575.50,0.0475
3575.00,0.0474
3574.50,0.0474
3574.00,0.0473
3573.50,0.0472
3573.00,0.0472
3572.50,0.0471
3572.00,0.0470
3571.50,0.0470
3571.00,0.0469
3570.50,0.0468
3570.00,0.0467
3569.50,0.0466
3569.00,0.0464
3568.50,0.0463
3568.00,0.0461
3567.50,0.0461
3567.00,0.0461
3566.50,0.0462
3566.00,0.0463
3565.50,0.0464
3565.00,0.0464
3564.50,0.0464
3564.00,0.0464
3563.50,0.0463
3563.00,0.0462
3562.50,0.0462
3562.00,0.0461
3561.50,0.0461
3561.00,0.0461
3560.50,0.0461
3560.00,0.0460
3559.50,0.0460
3559.00,0.0460
3558.50,0.0459
3558.00,0.0459
3557.50,0.0458
3557.00,0.0458
3556.50,0.0457
3556.00,0.0457
3555.50,0.0456
3555.00,0.0456
3554.50,0.0456
3554.00,0.0456
3553.50,0.0455
3553.00,0.0455
3552.50,0.0455
3552.00,0.0455
3551.50,0.0455
3551.00,0.0454
3550.50,0.0454
3550.00,0.0454
3549.50,0.0453
3549.00,0.0453
3548.50,0.0452
3548.00,0.0451
3547.50,0.0450
3547.00,0.0449
3546.50,0.0449
3546.00,0.0449
3545.50,0.0450
3545.00,0.0450
3544.50,0.0451
3544.00,0.0451
3543.50,0.0451
3543.00,0.0451
3542.50,0.0451
3542.00,0.0451
3541.50,0.0451
3541.00,0.0451
3540.50,0.0451
3540.00,0.0451
3539.50,0.0451
3539.00,0.0451
3538.50,0.0451
3538.00,0.0450
3537.50,0.0450
3537.00,0.0450
3536.50,0.0450
3536.00,0.0450
3535.50,0.0450
3535.00,0.0450
3534.50,0.0450
3534.00,0.0449
3533.50,0.0449
3533.00,0.0449
3532.50,0.0449
3532.00,0.0449
3531.50,0.0449
3531.00,0.0449
3530.50,0.0449
3530.00,0.0449
3529.50,0.0449
3529.00,0.0449
3528.50,0.0449
3528.00,0.0448
3527.50,0.0448
3527.00,0.0447
3526.50,0.0447
3526.00,0.0446
3525.50,0.0445
3525.00,0.0445
3524.50,0.0445
3524.00,0.0445
3523.50,0.0445
3523.00,0.0446
3522.50,0.0446
3522.00,0.0446
3521.50,0.0446
3521.00,0.0446
3520.50,0.0446
3520.00,0.0445
3519.50,0.0445
3519.00,0.0445
3518.50,0.0445
3518.00,0.0444
3517.50,0.0444
3517.00,0.0444
3516.50,0.0444
3516.00,0.0443
3515.50,0.0443
3515.00,0.0443
3514.50,0.0442
3514.00,0.0442
3513.50,0.0441
3513.00,0.0441
3512.50,0.0441
3512.00,0.0441
3511.50,0.0441
3511.00,0.0441
3510.50,0.0440
3510.00,0.0440
3509.50,0.0440
3509.00,0.0440
3508.50,0.0440
3508.00,0.0439
3507.50,0.0439
3507.00,0.0439
3506.50,0.0438
3506.00,0.0438
3505.50,0.0438
3505.00,0.0437
3504.50,0.0437
3504.00,0.0436
3503.50,0.0436
3503.00,0.0436
3502.50,0.0435
3502.00,0.0435
3501.50,0.0436
3501.00,0.0435
3500.50,0.0435
3500.00,0.0435
3499.50,0.0435
3499.00,0.0434
3498.50,0.0434
3498.00,0.0434
3497.50,0.0434
3497.00,0.0434
3496.50,0.0434
3496.00,0.0433
3495.50,0.0433
3495.00,0.0433
3494.50,0.0432
3494.00,0.0432
3493.50,0.0432
3493.00,0.0432
3492.50,0.0432
3492.00,0.0431
3491.50,0.0431
3491.00,0.0431
3490.50,0.0430
3490.00,0.0430
3489.50,0.0430
3489.00,0.0430
3488.50,0.0429
3488.00,0.0429
3487.50,0.0429
3487.00,0.0428
3486.50,0.0428
3486.00,0.0428
3485.50,0.0428
3485.00,0.0428
3484.50,0.0427
3484.00,0.0427
3483.50,0.0427
3483.00,0.0427
3482.50,0.0426
3482.00,0.0426
3481.50,0.0426
3481.00,0.0425
3480.50,0.0424
3480.00,0.0424
3479.50,0.0424
3479.00,0.0424
3478.50,0.0424
3478.00,0.0424
3477.50,0.0424
3477.00,0.0424
3476.50,0.0423
3476.00,0.0423
3475.50,0.0423
3475.00,0.0423
3474.50,0.0422
3474.00,0.0422
3473.50,0.0422
3473.00,0.0421
3472.50,0.0421
3472.00,0.0421
3471.50,0.0420
3471.00,0.0419
3470.50,0.0419
3470.00,0.0418
3469.50,0.0418
3469.00,0.0417
3468.50,0.0417
3468.00,0.0417
3467.50,0.0417
3467.00,0.0417
3466.50,0.0417
3466.00,0.0417
3465.50,0.0417
3465.00,0.0416
3464.50,0.0416
3464.00,0.0416
3463.50,0.0416
3463.00,0.0416
3462.50,0.0416
3462.00,0.0415
3461.50,0.0415
3461.00,0.0414
3460.50,0.0414
3460.00,0.0413
3459.50,0.0413
3459.00,0.0413
3458.50,0.0413
3458.00,0.0413
3457.50,0.0413
3457.00,0.0412
3456.50,0.0412
3456.00,0.0412
3455.50,0.0412
3455.00,0.0411
3454.50,0.0411
3454.00,0.0411
3453.50,0.0410
3453.00,0.0410
3452.50,0.0410
3452.00,0.0410
3451.50,0.0409
3451.00,0.0409
3450.50,0.0409
3450.00,0.0408
3449.50,0.0408
3449.00,0.0408
3448.50,0.0408
3448.00,0.0408
3447.50,0.0407
3447.00,0.0407
3446.50,0.0407
3446.00,0.0406
3445.50,0.0406
3445.00,0.0406
3444.50,0.0405
3444.00,0.0405
3443.50,0.0405
3443.00,0.0405
3442.50,0.0404
3442.00,0.0404
3441.50,0.0404
3441.00,0.0404
3440.50,0.0403
3440.00,0.0403
3439.50,0.0403
3439.00,0.0402
3438.50,0.0402
3438.00,0.0401
3437.50,0.0401
3437.00,0.0400
3436.50,0.0400
3436.00,0.0400
3435.50,0.0399
3435.00,0.0399
3434.50,0.0399
3434.00,0.0399
3433.50,0.0399
3433.00,0.0399
3432.50,0.0399
3432.00,0.0398
3431.50,0.0398
3431.00,0.0398
3430.50,0.0397
3430.00,0.0397
3429.50,0.0397
3429.00,0.0397
3428.50,0.0397
3428.00,0.0397
3427.50,0.0397
3427.00,0.0397
3426.50,0.0397
3426.00,0.0396
3425.50,0.0396
3425.00,0.0396
3424.50,0.0396
3424.00,0.0396
3423.50,0.0395
3423.00,0.0395
3422.50,0.0395
3422.00,0.0395
3421.50,0.0395
3421.00,0.0395
3420.50,0.0394
3420.00,0.0394
3419.50,0.0394
3419.00,0.0394
3418.50,0.0394
3418.00,0.0393
3417.50,0.0393
3417.00,0.0393
3416.50,0.0393
3416.00,0.0393
3415.50,0.0392
3415.00,0.0392
3414.50,0.0392
3414.00,0.0391
3413.50,0.0391
3413.00,0.0391
3412.50,0.0391
3412.00,0.0391
3411.50,0.0391
3411.00,0.0391
3410.50,0.0390
3410.00,0.0390
3409.50,0.0390
3409.00,0.0390
3408.50,0.0390
3408.00,0.0390
3407.50,0.0390
3407.00,0.0389
3406.50,0.0389
3406.00,0.0389
3405.50,0.0389
3405.00,0.0389
3404.50,0.0389
3404.00,0.0388
3403.50,0.0388
3403.00,0.0387
3402.50,0.0387
3402.00,0.0386
3401.50,0.0386
3401.00,0.0386
3400.50,0.0385
3400.00,0.0386
3399.50,0.0386
3399.00,0.0386
3398.50,0.0386
3398.00,0.0386
3397.50,0.0386
3397.00,0.0386
3396.50,0.0386
3396.00,0.0386
3395.50,0.0386
3395.00,0.0386
3394.50,0.0385
3394.00,0.0385
3393.50,0.0385
3393.00,0.0384
3392.50,0.0384
3392.00,0.0384
3391.50,0.0384
3391.00,0.0384
3390.50,0.0384
3390.00,0.0384
3389.50,0.0384
3389.00,0.0384
3388.50,0.0384
3388.00,0.0384
3387.50,0.0384
3387.00,0.0384
3386.50,0.0384
3386.00,0.0384
3385.50,0.0384
3385.00,0.0384
3384.50,0.0384
3384.00,0.0384
3383.50,0.0384
3383.00,0.0383
3382.50,0.0383
3382.00,0.0383
3381.50,0.0383
3381.00,0.0382
3380.50,0.0382
3380.00,0.0382
3379.50,0.0382
3379.00,0.0382
3378.50,0.0382
3378.00,0.0382
3377.50,0.0382
3377.00,0.0382
3376.50,0.0382
3376.00,0.0382
3375.50,0.0382
3375.00,0.0382
3374.50,0.0382
3374.00,0.0382
3373.50,0.0382
3373.00,0.0382
3372.50,0.0381
3372.00,0.0381
3371.50,0.0381
3371.00,0.0380
3370.50,0.0380
3370.00,0.0379
3369.50,0.0379
3369.00,0.0380
3368.50,0.0380
3368.00,0.0380
3367.50,0.0380
3367.00,0.0380
3366.50,0.0380
3366.00,0.0380
3365.50,0.0381
3365.00,0.0381
3364.50,0.0381
3364.00,0.0381
3363.50,0.0381
3363.00,0.0381
3362.50,0.0381
3362.00,0.0381
3361.50,0.0380
3361.00,0.0380
3360.50,0.0380
3360.00,0.0380
3359.50,0.0380
3359.00,0.0380
3358.50,0.0380
3358.00,0.0380
3357.50,0.0380
3357.00,0.0380
3356.50,0.0380
3356.00,0.0380
3355.50,0.0380
3355.00,0.0380
3354.50,0.0380
3354.00,0.0380
3353.50,0.0380
3353.00,0.0380
3352.50,0.0380
3352.00,0.0379
3351.50,0.0379
3351.00,0.0378
3350.50,0.0378
3350.00,0.0379
3349.50,0.0379
3349.00,0.0379
3348.50,0.0379
3348.00,0.0379
3347.50,0.0379
3347.00,0.0379
3346.50,0.0379
3346.00,0.0379
3345.50,0.0379
3345.00,0.0379
3344.50,0.0378
3344.00,0.0378
3343.50,0.0378
3343.00,0.0378
3342.50,0.0378
3342.00,0.0378
3341.50,0.0378
3341.00,0.0378
3340.50,0.0378
3340.00,0.0377
3339.50,0.0377
3339.00,0.0377
3338.50,0.0377
3338.00,0.0377
3337.50,0.0377
3337.00,0.0377
3336.50,0.0377
3336.00,0.0377
3335.50,0.0377
3335.00,0.0377
3334.50,0.0377
3334.00,0.0377
3333.50,0.0377
3333.00,0.0377
3332.50,0.0377
3332.00,0.0377
3331.50,0.0377
3331.00,0.0376
3330.50,0.0376
3330.00,0.0376
3329.50,0.0376
3329.00,0.0376
3328.50,0.0376
3328.00,0.0376
3327.50,0.0375
3327.00,0.0375
3326.50,0.0375
3326.00,0.0375
3325.50,0.0375
3325.00,0.0375
3324.50,0.0375
3324.00,0.0375
3323.50,0.0375
3323.00,0.0375
3322.50,0.0375
3322.00,0.0375
3321.50,0.0375
3321.00,0.0375
3320.50,0.0375
3320.00,0.0375
3319.50,0.0375
3319.00,0.0374
3318.50,0.0374
3318.00,0.0374
3317.50,0.0374
3317.00,0.0374
3316.50,0.0374
3316.00,0.0374
3315.50,0.0374
3315.00,0.0374
3314.50,0.0374
3314.00,0.0374
3313.50,0.0374
3313.00,0.0374
3312.50,0.0374
3312.00,0.0374
3311.50,0.0373
3311.00,0.0373
3310.50,0.0373
3310.00,0.0372
3309.50,0.0372
3309.00,0.0372
3308.50,0.0372
3308.00,0.0372
3307.50,0.0372
3307.00,0.0371
3306.50,0.0371
3306.00,0.0371
3305.50,0.0371
3305.00,0.0371
3304.50,0.0371
3304.00,0.0372
3303.50,0.0372
3303.00,0.0372
3302.50,0.0372
3302.00,0.0373
3301.50,0.0373
3301.00,0.0373
3300.50,0.0372
3300.00,0.0372
3299.50,0.0372
3299.00,0.0372
3298.50,0.0372
3298.00,0.0372
3297.50,0.0372
3297.00,0.0371
3296.50,0.0371
3296.00,0.0371
3295.50,0.0371
3295.00,0.0371
3294.50,0.0371
3294.00,0.0371
3293.50,0.0371
3293.00,0.0371
3292.50,0.0371
3292.00,0.0371
3291.50,0.0371
3291.00,0.0371
3290.50,0.0371
3290.00,0.0372
3289.50,0.0372
3289.00,0.0372
3288.50,0.0372
3288.00,0.0372
3287.50,0.0372
3287.00,0.0372
3286.50,0.0372
3286.00,0.0372
3285.50,0.0372
3285.00,0.0372
3284.50,0.0371
3284.00,0.0371
3283.50,0.0372
3283.00,0.0372
3282.50,0.0372
3282.00,0.0372
3281.50,0.0372
3281.00,0.0371
3280.50,0.0371
3280.00,0.0371
3279.50,0.0371
3279.00,0.0371
3278.50,0.0371
3278.00,0.0371
3277.50,0.0371
3277.00,0.0371
3276.50,0.0371
3276.00,0.0371
3275.50,0.0371
3275.00,0.0371
3274.50,0.0371
3274.00,0.0371
3273.50,0.0371
3273.00,0.0371
3272.50,0.0370
3272.00,0.0370
3271.50,0.0370
3271.00,0.0370
3270.50,0.0370
3270.00,0.0371
3269.50,0.0371
3269.00,0.0371
3268.50,0.0372
3268.00,0.0372
3267.50,0.0372
3267.00,0.0372
3266.50,0.0372
3266.00,0.0372
3265.50,0.0372
3265.00,0.0372
3264.50,0.0372
3264.00,0.0372
3263.50,0.0372
3263.00,0.0372
3262.50,0.0372
3262.00,0.0372
3261.50,0.0372
3261.00,0.0372
3260.50,0.0372
3260.00,0.0372
3259.50,0.0372
3259.00,0.0372
3258.50,0.0373
3258.00,0.0373
3257.50,0.0372
3257.00,0.0372
3256.50,0.0372
3256.00,0.0372
3255.50,0.0372
3255.00,0.0372
3254.50,0.0373
3254.00,0.0373
3253.50,0.0373
3253.00,0.0373
3252.50,0.0373
3252.00,0.0373
3251.50,0.0373
3251.00,0.0373
3250.50,0.0373
3250.00,0.0373
3249.50,0.0373
3249.00,0.0373
3248.50,0.0373
3248.00,0.0373
3247.50,0.0373
3247.00,0.0373
3246.50,0.0373
3246.00,0.0374
3245.50,0.0374
3245.00,0.0374
3244.50,0.0374
3244.00,0.0374
3243.50,0.0374
3243.00,0.0375
3242.50,0.0375
3242.00,0.0375
3241.50,0.0375
3241.00,0.0375
3240.50,0.0375
3240.00,0.0375
3239.50,0.0375
3239.00,0.0375
3238.50,0.0375
3238.00,0.0375
3237.50,0.0375
3237.00,0.0376
3236.50,0.0376
3236.00,0.0376
3235.50,0.0376
3235.00,0.0375
3234.50,0.0375
3234.00,0.0375
3233.50,0.0375
3233.00,0.0376
3232.50,0.0376
3232.00,0.0376
3231.50,0.0377
3231.00,0.0377
3230.50,0.0377
3230.00,0.0377
3229.50,0.0378
3229.00,0.0378
3228.50,0.0378
3228.00,0.0378
3227.50,0.0378
3227.00,0.0378
3226.50,0.0378
3226.00,0.0379
3225.50,0.0379
3225.00,0.0379
3224.50,0.0379
3224.00,0.0379
3223.50,0.0379
3223.00,0.0379
3222.50,0.0379
3222.00,0.0380
3221.50,0.0380
3221.00,0.0380
3220.50,0.0380
3220.00,0.0380
3219.50,0.0380
3219.00,0.0380
3218.50,0.0380
3218.00,0.0380
3217.50,0.0381
3217.00,0.0381
3216.50,0.0381
3216.00,0.0381
3215.50,0.0381
3215.00,0.0381
3214.50,0.0381
3214.00,0.0381
3213.50,0.0382
3213.00,0.0382
3212.50,0.0382
3212.00,0.0382
3211.50,0.0382
3211.00,0.0382
3210.50,0.0383
3210.00,0.0383
3209.50,0.0383
3209.00,0.0383
3208.50,0.0383
3208.00,0.0383
3207.50,0.0384
3207.00,0.0384
3206.50,0.0384
3206.00,0.0384
3205.50,0.0384
3205.00,0.0385
3204.50,0.0385
3204.00,0.0385
3203.50,0.0385
3203.00,0.0385
3202.50,0.0386
3202.00,0.0386
3201.50,0.0386
3201.00,0.0386
3200.50,0.0387
3200.00,0.0387
3199.50,0.0387
3199.00,0.0387
3198.50,0.0387
3198.00,0.0388
3197.50,0.0388
3197.00,0.0388
3196.50,0.0389
3196.00,0.0389
3195.50,0.0389
3195.00,0.0389
3194.50,0.0390
3194.00,0.0390
3193.50,0.0390
3193.00,0.0391
3192.50,0.0391
3192.00,0.0391
3191.50,0.0392
3191.00,0.0392
3190.50,0.0392
3190.00,0.0393
3189.50,0.0393
3189.00,0.0394
3188.50,0.0394
3188.00,0.0394
3187.50,0.0395
3187.00,0.0395
3186.50,0.0395
3186.00,0.0395
3185.50,0.0396
3185.00,0.0396
3184.50,0.0396
3184.00,0.0396
3183.50,0.0396
3183.00,0.0396
3182.50,0.0396
3182.00,0.0396
3181.50,0.0396
3181.00,0.0396
3180.50,0.0396
3180.00,0.0396
3179.50,0.0396
3179.00,0.0396
3178.50,0.0396
3178.00,0.0396
3177.50,0.0396
3177.00,0.0396
3176.50,0.0396
3176.00,0.0397
3175.50,0.0397
3175.00,0.0397
3174.50,0.0397
3174.00,0.0397
3173.50,0.0398
3173.00,0.0398
3172.50,0.0398
3172.00,0.0398
3171.50,0.0399
3171.00,0.0399
3170.50,0.0399
3170.00,0.0399
3169.50,0.0399
3169.00,0.0400
3168.50,0.0400
3168.00,0.0401
3167.50,0.0401
3167.00,0.0401
3166.50,0.0402
3166.00,0.0402
3165.50,0.0402
3165.00,0.0402
3164.50,0.0403
3164.00,0.0403
3163.50,0.0404
3163.00,0.0404
3162.50,0.0404
3162.00,0.0405
3161.50,0.0405
3161.00,0.0406
3160.50,0.0406
3160.00,0.0406
3159.50,0.0407
3159.00,0.0407
3158.50,0.0408
3158.00,0.0408
3157.50,0.0409
3157.00,0.0409
3156.50,0.0410
3156.00,0.0410
3155.50,0.0411
3155.00,0.0411
3154.50,0.0411
3154.00,0.0411
3153.50,0.0412
3153.00,0.0412
3152.50,0.0413
3152.00,0.0413
3151.50,0.0414
3151.00,0.0415
3150.50,0.0416
3150.00,0.0417
3149.50,0.0418
3149.00,0.0418
3148.50,0.0419
3148.00,0.0419
3147.50,0.0420
3147.00,0.0421
3146.50,0.0422
3146.00,0.0422
3145.50,0.0423
3145.00,0.0424
3144.50,0.0424
3144.00,0.0425
3143.50,0.0426
3143.00,0.0427
3142.50,0.0427
3142.00,0.0428
3141.50,0.0429
3141.00,0.0429
3140.50,0.0430
3140.00,0.0431
3139.50,0.0432
3139.00,0.0433
3138.50,0.0434
3138.00,0.0435
3137.50,0.0436
3137.00,0.0437
3136.50,0.0438
3136.00,0.0439
3135.50,0.0441
3135.00,0.0442
3134.50,0.0442
3134.00,0.0443
3133.50,0.0444
3133.00,0.0445
3132.50,0.0446
3132.00,0.0447
3131.50,0.0448
3131.00,0.0449
3130.50,0.0450
3130.00,0.0451
3129.50,0.0453
3129.00,0.0454
3128.50,0.0455
3128.00,0.0456
3127.50,0.0458
3127.00,0.0459
3126.50,0.0460
3126.00,0.0461
3125.50,0.0462
3125.00,0.0463
3124.50,0.0464
3124.00,0.0465
3123.50,0.0466
3123.00,0.0467
3122.50,0.0468
3122.00,0.0468
3121.50,0.0469
3121.00,0.0469
3120.50,0.0470
3120.00,0.0471
3119.50,0.0472
3119.00,0.0473
3118.50,0.0474
3118.00,0.0475
3117.50,0.0476
3117.00,0.0476
3116.50,0.0477
3116.00,0.0478
3115.50,0.0479
3115.00,0.0480
3114.50,0.0481
3114.00,0.0482
3113.50,0.0483
3113.00,0.0483
3112.50,0.0484
3112.00,0.0485
3111.50,0.0485
3111.00,0.0486
3110.50,0.0486
3110.00,0.0486
3109.50,0.0486
3109.00,0.0486
3108.50,0.0487
3108.00,0.0488
3107.50,0.0488
3107.00,0.0489
3106.50,0.0489
3106.00,0.0490
3105.50,0.0490
3105.00,0.0490
3104.50,0.0490
3104.00,0.0491
3103.50,0.0491
3103.00,0.0491
3102.50,0.0491
3102.00,0.0491
3101.50,0.0491
3101.00,0.0491
3100.50,0.0492
3100.00,0.0492
3099.50,0.0492
3099.00,0.0493
3098.50,0.0493
3098.00,0.0494
3097.50,0.0494
3097.00,0.0494
3096.50,0.0494
3096.00,0.0494
3095.50,0.0495
3095.00,0.0495
3094.50,0.0495
3094.00,0.0495
3093.50,0.0496
3093.00,0.0496
3092.50,0.0496
3092.00,0.0496
3091.50,0.0496
3091.00,0.0496
3090.50,0.0497
3090.00,0.0497
3089.50,0.0498
3089.00,0.0498
3088.50,0.0499
3088.00,0.0499
3087.50,0.0499
3087.00,0.0500
3086.50,0.0500
3086.00,0.0501
3085.50,0.0501
3085.00,0.0501
3084.50,0.0501
3084.00,0.0502
3083.50,0.0503
3083.00,0.0504
3082.50,0.0505
3082.00,0.0505
3081.50,0.0505
3081.00,0.0506
3080.50,0.0506
3080.00,0.0507
3079.50,0.0508
3079.00,0.0508
3078.50,0.0509
3078.00,0.0510
3077.50,0.0511
3077.00,0.0512
3076.50,0.0513
3076.00,0.0514
3075.50,0.0515
3075.00,0.0516
3074.50,0.0517
3074.00,0.0518
3073.50,0.0519
3073.00,0.0520
3072.50,0.0521
3072.00,0.0522
3071.50,0.0523
3071.00,0.0525
3070.50,0.0526
3070.00,0.0527
3069.50,0.0528
3069.00,0.0529
3068.50,0.0530
3068.00,0.0531
3067.50,0.0533
3067.00,0.0534
3066.50,0.0536
3066.00,0.0539
3065.50,0.0541
3065.00,0.0543
3064.50,0.0545
3064.00,0.0547
3063.50,0.0549
3063.00,0.0552
3062.50,0.0554
3062.00,0.0557
3061.50,0.0560
3061.00,0.0563
3060.50,0.0566
3060.00,0.0569
3059.50,0.0572
3059.00,0.0575
3058.50,0.0578
3058.00,0.0581
3057.50,0.0585
3057.00,0.0588
3056.50,0.0591
3056.00,0.0594
3055.50,0.0596
3055.00,0.0599
3054.50,0.0601
3054.00,0.0603
3053.50,0.0604
3053.00,0.0604
3052.50,0.0604
3052.00,0.0603
3051.50,0.0601
3051.00,0.0600
3050.50,0.0597
3050.00,0.0595
3049.50,0.0592
3049.00,0.0589
3048.50,0.0585
3048.00,0.0581
3047.50,0.0578
3047.00,0.0574
3046.50,0.0571
3046.00,0.0568
3045.50,0.0565
3045.00,0.0563
3044.50,0.0560
3044.00,0.0558
3043.50,0.0556
3043.00,0.0555
3042.50,0.0553
3042.00,0.0552
3041.50,0.0551
3041.00,0.0550
3040.50,0.0550
3040.00,0.0549
3039.50,0.0549
3039.00,0.0549
3038.50,0.0548
3038.00,0.0548
3037.50,0.0547
3037.00,0.0547
3036.50,0.0546
3036.00,0.0546
3035.50,0.0545
3035.00,0.0545
3034.50,0.0545
3034.00,0.0545
3033.50,0.0545
3033.00,0.0546
3032.50,0.0546
3032.00,0.0547
3031.50,0.0547
3031.00,0.0548
3030.50,0.0548
3030.00,0.0549
3029.50,0.0550
3029.00,0.0550
3028.50,0.0551
3028.00,0.0552
3027.50,0.0553
3027.00,0.0555
3026.50,0.0556
3026.00,0.0557
3025.50,0.0558
3025.00,0.0559
3024.50,0.0561
3024.00,0.0563
3023.50,0.0565
3023.00,0.0567
3022.50,0.0569
3022.00,0.0571
3021.50,0.0574
3021.00,0.0576
3020.50,0.0578
3020.00,0.0580
3019.50,0.0583
3019.00,0.0585
3018.50,0.0587
3018.00,0.0589
3017.50,0.0591
3017.00,0.0594
3016.50,0.0596
3016.00,0.0598
3015.50,0.0599
3015.00,0.0600
3014.50,0.0602
3014.00,0.0603
3013.50,0.0605
3013.00,0.0606
3012.50,0.0607
3012.00,0.0609
3011.50,0.0610
3011.00,0.0611
3010.50,0.0613
3010.00,0.0615
3009.50,0.0617
3009.00,0.0619
3008.50,0.0621
3008.00,0.0623
3007.50,0.0626
3007.00,0.0628
3006.50,0.0631
3006.00,0.0634
3005.50,0.0637
3005.00,0.0640
3004.50,0.0644
3004.00,0.0648
3003.50,0.0652
3003.00,0.0656
3002.50,0.0661
3002.00,0.0666
3001.50,0.0671
3001.00,0.0676
3000.50,0.0682
3000.00,0.0688
2999.50,0.0695
2999.00,0.0702
2998.50,0.0709
2998.00,0.0717
2997.50,0.0726
2997.00,0.0735
2996.50,0.0745
2996.00,0.0755
2995.50,0.0766
2995.00,0.0778
2994.50,0.0790
2994.00,0.0802
2993.50,0.0816
2993.00,0.0830
2992.50,0.0845
2992.00,0.0861
2991.50,0.0878
2991.00,0.0895
2990.50,0.0914
2990.00,0.0934
2989.50,0.0956
2989.00,0.0978
2988.50,0.1002
2988.00,0.1027
2987.50,0.1054
2987.00,0.1082
2986.50,0.1112
2986.00,0.1144
2985.50,0.1177
2985.00,0.1212
2984.50,0.1249
2984.00,0.1286
2983.50,0.1324
2983.00,0.1364
2982.50,0.1408
2982.00,0.1458
2981.50,0.1515
2981.00,0.1578
2980.50,0.1646
2980.00,0.1718
2979.50,0.1795
2979.00,0.1878
2978.50,0.1966
2978.00,0.2059
2977.50,0.2159
2977.00,0.2265
2976.50,0.2377
2976.00,0.2495
2975.50,0.2620
2975.00,0.2752
2974.50,0.2891
2974.00,0.3037
2973.50,0.3190
2973.00,0.3349
2972.50,0.3514
2972.00,0.3685
2971.50,0.3861
2971.00,0.4042
2970.50,0.4228
2970.00,0.4419
2969.50,0.4610
2969.00,0.4799
2968.50,0.4983
2968.00,0.5162
2967.50,0.5331
2967.00,0.5490
2966.50,0.5637
2966.00,0.5769
2965.50,0.5884
2965.00,0.5979
2964.50,0.6053
2964.00,0.6104
2963.50,0.6130
2963.00,0.6131
2962.50,0.6106
2962.00,0.6057
2961.50,0.5983
2961.00,0.5886
2960.50,0.5767
2960.00,0.5628
2959.50,0.5473
2959.00,0.5303
2958.50,0.5122
2958.00,0.4933
2957.50,0.4740
2957.00,0.4544
2956.50,0.4348
2956.00,0.4155
2955.50,0.3966
2955.00,0.3782
2954.50,0.3606
2954.00,0.3437
2953.50,0.3276
2953.00,0.3124
2952.50,0.2981
2952.00,0.2847
2951.50,0.2721
2951.00,0.2603
2950.50,0.2492
2950.00,0.2389
2949.50,0.2291
2949.00,0.2199
2948.50,0.2113
2948.00,0.2032
2947.50,0.1956
2947.00,0.1885
2946.50,0.1819
2946.00,0.1758
2945.50,0.1700
2945.00,0.1646
2944.50,0.1595
2944.00,0.1548
2943.50,0.1504
2943.00,0.1463
2942.50,0.1424
2942.00,0.1388
2941.50,0.1354
2941.00,0.1322
2940.50,0.1292
2940.00,0.1263
2939.50,0.1236
2939.00,0.1211
2938.50,0.1187
2938.00,0.1165
2937.50,0.1144
2937.00,0.1125
2936.50,0.1106
2936.00,0.1089
2935.50,0.1073
2935.00,0.1057
2934.50,0.1043
2934.00,0.1029
2933.50,0.1017
2933.00,0.1005
2932.50,0.0993
2932.00,0.0983
2931.50,0.0973
2931.00,0.0964
2930.50,0.0956
2930.00,0.0948
2929.50,0.0942
2929.00,0.0937
2928.50,0.0932
2928.00,0.0928
2927.50,0.0924
2927.00,0.0921
2926.50,0.0919
2926.00,0.0918
2925.50,0.0917
2925.00,0.0916
2924.50,0.0917
2924.00,0.0918
2923.50,0.0920
2923.00,0.0922
2922.50,0.0926
2922.00,0.0930
2921.50,0.0934
2921.00,0.0940
2920.50,0.0946
2920.00,0.0952
2919.50,0.0960
2919.00,0.0968
2918.50,0.0976
2918.00,0.0986
2917.50,0.0996
2917.00,0.1007
2916.50,0.1018
2916.00,0.1031
2915.50,0.1043
2915.00,0.1056
2914.50,0.1071
2914.00,0.1086
2913.50,0.1103
2913.00,0.1121
2912.50,0.1141
2912.00,0.1163
2911.50,0.1185
2911.00,0.1208
2910.50,0.1232
2910.00,0.1256
2909.50,0.1281
2909.00,0.1304
2908.50,0.1327
2908.00,0.1348
2907.50,0.1366
2907.00,0.1383
2906.50,0.1396
2906.00,0.1406
2905.50,0.1412
2905.00,0.1414
2904.50,0.1412
2904.00,0.1407
2903.50,0.1398
2903.00,0.1385
2902.50,0.1370
2902.00,0.1351
2901.50,0.1331
2901.00,0.1308
2900.50,0.1284
2900.00,0.1258
2899.50,0.1232
2899.00,0.1205
2898.50,0.1178
2898.00,0.1151
2897.50,0.1124
2897.00,0.1098
2896.50,0.1072
2896.00,0.1048
2895.50,0.1024
2895.00,0.1001
2894.50,0.0979
2894.00,0.0958
2893.50,0.0938
2893.00,0.0919
2892.50,0.0900
2892.00,0.0883
2891.50,0.0866
2891.00,0.0851
2890.50,0.0836
2890.00,0.0822
2889.50,0.0809
2889.00,0.0797
2888.50,0.0785
2888.00,0.0774
2887.50,0.0764
2887.00,0.0754
2886.50,0.0744
2886.00,0.0735
2885.50,0.0727
2885.00,0.0718
2884.50,0.0710
2884.00,0.0702
2883.50,0.0695
2883.00,0.0688
2882.50,0.0682
2882.00,0.0677
2881.50,0.0672
2881.00,0.0667
2880.50,0.0662
2880.00,0.0657
2879.50,0.0653
2879.00,0.0648
2878.50,0.0644
2878.00,0.0640
2877.50,0.0636
2877.00,0.0632
2876.50,0.0627
2876.00,0.0624
2875.50,0.0620
2875.00,0.0615
2874.50,0.0611
2874.00,0.0607
2873.50,0.0604
2873.00,0.0601
2872.50,0.0597
2872.00,0.0594
2871.50,0.0591
2871.00,0.0588
2870.50,0.0585
2870.00,0.0582
2869.50,0.0580
2869.00,0.0577
2868.50,0.0575
2868.00,0.0572
2867.50,0.0570
2867.00,0.0568
2866.50,0.0567
2866.00,0.0565
2865.50,0.0563
2865.00,0.0562
2864.50,0.0561
2864.00,0.0560
2863.50,0.0559
2863.00,0.0558
2862.50,0.0557
2862.00,0.0556
2861.50,0.0555
2861.00,0.0555
2860.50,0.0554
2860.00,0.0554
2859.50,0.0554
2859.00,0.0554
2858.50,0.0554
2858.00,0.0554
2857.50,0.0554
2857.00,0.0554
2856.50,0.0554
2856.00,0.0555
2855.50,0.0555
2855.00,0.0556
2854.50,0.0557
2854.00,0.0558
2853.50,0.0560
2853.00,0.0562
2852.50,0.0564
2852.00,0.0566
2851.50,0.0568
2851.00,0.0569
2850.50,0.0571
2850.00,0.0571
2849.50,0.0571
2849.00,0.0569
2848.50,0.0567
2848.00,0.0564
2847.50,0.0561
2847.00,0.0557
2846.50,0.0554
2846.00,0.0550
2845.50,0.0547
2845.00,0.0544
2844.50,0.0541
2844.00,0.0539
2843.50,0.0537
2843.00,0.0535
2842.50,0.0533
2842.00,0.0531
2841.50,0.0530
2841.00,0.0528
2840.50,0.0527
2840.00,0.0526
2839.50,0.0524
2839.00,0.0523
2838.50,0.0522
2838.00,0.0521
2837.50,0.0520
2837.00,0.0519
2836.50,0.0518
2836.00,0.0516
2835.50,0.0515
2835.00,0.0514
2834.50,0.0513
2834.00,0.0512
2833.50,0.0511
2833.00,0.0510
2832.50,0.0509
2832.00,0.0508
2831.50,0.0507
2831.00,0.0506
2830.50,0.0506
2830.00,0.0505
2829.50,0.0504
2829.00,0.0504
2828.50,0.0503
2828.00,0.0503
2827.50,0.0502
2827.00,0.0502
2826.50,0.0501
2826.00,0.0501
2825.50,0.0501
2825.00,0.0501
2824.50,0.0500
2824.00,0.0500
2823.50,0.0500
2823.00,0.0500
2822.50,0.0501
2822.00,0.0501
2821.50,0.0501
2821.00,0.0501
2820.50,0.0502
2820.00,0.0502
2819.50,0.0502
2819.00,0.0503
2818.50,0.0503
2818.00,0.0504
2817.50,0.0504
2817.00,0.0504
2816.50,0.0505
2816.00,0.0505
2815.50,0.0505
2815.00,0.0506
2814.50,0.0506
2814.00,0.0506
2813.50,0.0507
2813.00,0.0507
2812.50,0.0507
2812.00,0.0507
2811.50,0.0507
2811.00,0.0507
2810.50,0.0507
2810.00,0.0507
2809.50,0.0507
2809.00,0.0507
2808.50,0.0507
2808.00,0.0507
2807.50,0.0507
2807.00,0.0506
2806.50,0.0506
2806.00,0.0506
2805.50,0.0505
2805.00,0.0505
2804.50,0.0505
2804.00,0.0504
2803.50,0.0504
2803.00,0.0504
2802.50,0.0503
2802.00,0.0503
2801.50,0.0503
2801.00,0.0502
2800.50,0.0502
2800.00,0.0501
2799.50,0.0501
2799.00,0.0500
2798.50,0.0500
2798.00,0.0499
2797.50,0.0498
2797.00,0.0498
2796.50,0.0497
2796.00,0.0496
2795.50,0.0495
2795.00,0.0494
2794.50,0.0492
2794.00,0.0491
2793.50,0.0490
2793.00,0.0488
2792.50,0.0486
2792.00,0.0484
2791.50,0.0482
2791.00,0.0480
2790.50,0.0477
2790.00,0.0475
2789.50,0.0472
2789.00,0.0469
2788.50,0.0467
2788.00,0.0464
2787.50,0.0461
2787.00,0.0458
2786.50,0.0455
2786.00,0.0452
2785.50,0.0448
2785.00,0.0445
2784.50,0.0442
2784.00,0.0439
2783.50,0.0436
2783.00,0.0434
2782.50,0.0431
2782.00,0.0428
2781.50,0.0425
2781.00,0.0423
2780.50,0.0420
2780.00,0.0418
2779.50,0.0415
2779.00,0.0413
2778.50,0.0411
2778.00,0.0408
2777.50,0.0406
2777.00,0.0404
2776.50,0.0402
2776.00,0.0400
2775.50,0.0398
2775.00,0.0396
2774.50,0.0395
2774.00,0.0393
2773.50,0.0392
2773.00,0.0390
2772.50,0.0388
2772.00,0.0387
2771.50,0.0385
2771.00,0.0384
2770.50,0.0383
2770.00,0.0381
2769.50,0.0380
2769.00,0.0379
2768.50,0.0378
2768.00,0.0377
2767.50,0.0376
2767.00,0.0375
2766.50,0.0374
2766.00,0.0373
2765.50,0.0372
2765.00,0.0371
2764.50,0.0370
2764.00,0.0369
2763.50,0.0368
2763.00,0.0367
2762.50,0.0367
2762.00,0.0366
2761.50,0.0365
2761.00,0.0364
2760.50,0.0364
2760.00,0.0363
2759.50,0.0362
2759.00,0.0362
2758.50,0.0361
2758.00,0.0361
2757.50,0.0360
2757.00,0.0359
2756.50,0.0359
2756.00,0.0358
2755.50,0.0358
2755.00,0.0357
2754.50,0.0357
2754.00,0.0356
2753.50,0.0356
2753.00,0.0355
2752.50,0.0355
2752.00,0.0354
2751.50,0.0354
2751.00,0.0353
2750.50,0.0353
2750.00,0.0353
2749.50,0.0352
2749.00,0.0352
2748.50,0.0351
2748.00,0.0351
2747.50,0.0350
2747.00,0.0350
2746.50,0.0350
2746.00,0.0350
2745.50,0.0349
2745.00,0.0349
2744.50,0.0349
2744.00,0.0348
2743.50,0.0348
2743.00,0.0348
2742.50,0.0347
2742.00,0.0347
2741.50,0.0347
2741.00,0.0346
2740.50,0.0346
2740.00,0.0346
2739.50,0.0346
2739.00,0.0345
2738.50,0.0345
2738.00,0.0345
2737.50,0.0344
2737.00,0.0344
2736.50,0.0344
2736.00,0.0344
2735.50,0.0344
2735.00,0.0343
2734.50,0.0343
2734.00,0.0343
2733.50,0.0343
2733.00,0.0343
2732.50,0.0342
2732.00,0.0342
2731.50,0.0342
2731.00,0.0342
2730.50,0.0342
2730.00,0.0342
2729.50,0.0341
2729.00,0.0341
2728.50,0.0341
2728.00,0.0341
2727.50,0.0341
2727.00,0.0340
2726.50,0.0340
2726.00,0.0340
2725.50,0.0340
2725.00,0.0340
2724.50,0.0340
2724.00,0.0340
2723.50,0.0340
2723.00,0.0340
2722.50,0.0340
2722.00,0.0339
2721.50,0.0339
2721.00,0.0339
2720.50,0.0339
2720.00,0.0339
2719.50,0.0340
2719.00,0.0340
2718.50,0.0340
2718.00,0.0340
2717.50,0.0339
2717.00,0.0339
2716.50,0.0339
2716.00,0.0340
2715.50,0.0340
2715.00,0.0340
2714.50,0.0340
2714.00,0.0340
2713.50,0.0340
2713.00,0.0340
2712.50,0.0340
2712.00,0.0340
2711.50,0.0340
2711.00,0.0340
2710.50,0.0340
2710.00,0.0340
2709.50,0.0340
2709.00,0.0340
2708.50,0.0340
2708.00,0.0340
2707.50,0.0340
2707.00,0.0340
2706.50,0.0340
2706.00,0.0340
2705.50,0.0340
2705.00,0.0339
2704.50,0.0339
2704.00,0.0339
2703.50,0.0339
2703.00,0.0339
2702.50,0.0339
2702.00,0.0339
2701.50,0.0339
2701.00,0.0338
2700.50,0.0338
2700.00,0.0338
2699.50,0.0338
2699.00,0.0338
2698.50,0.0338
2698.00,0.0338
2697.50,0.0337
2697.00,0.0337
2696.50,0.0337
2696.00,0.0337
2695.50,0.0337
2695.00,0.0337
2694.50,0.0337
2694.00,0.0337
2693.50,0.0337
2693.00,0.0337
2692.50,0.0337
2692.00,0.0337
2691.50,0.0337
2691.00,0.0337
2690.50,0.0337
2690.00,0.0337
2689.50,0.0337
2689.00,0.0337
2688.50,0.0337
2688.00,0.0337
2687.50,0.0337
2687.00,0.0338
2686.50,0.0338
2686.00,0.0338
2685.50,0.0338
2685.00,0.0338
2684.50,0.0338
2684.00,0.0339
2683.50,0.0339
2683.00,0.0339
2682.50,0.0339
2682.00,0.0340
2681.50,0.0340
2681.00,0.0340
2680.50,0.0341
2680.00,0.0341
2679.50,0.0342
2679.00,0.0342
2678.50,0.0342
2678.00,0.0343
2677.50,0.0343
2677.00,0.0344
2676.50,0.0344
2676.00,0.0345
2675.50,0.0345
2675.00,0.0346
2674.50,0.0346
2674.00,0.0347
2673.50,0.0347
2673.00,0.0348
2672.50,0.0349
2672.00,0.0349
2671.50,0.0350
2671.00,0.0350
2670.50,0.0351
2670.00,0.0351
2669.50,0.0351
2669.00,0.0352
2668.50,0.0352
2668.00,0.0353
2667.50,0.0353
2667.00,0.0354
2666.50,0.0354
2666.00,0.0354
2665.50,0.0355
2665.00,0.0355
2664.50,0.0355
2664.00,0.0355
2663.50,0.0355
2663.00,0.0355
2662.50,0.0355
2662.00,0.0355
2661.50,0.0355
2661.00,0.0355
2660.50,0.0355
2660.00,0.0355
2659.50,0.0355
2659.00,0.0354
2658.50,0.0354
2658.00,0.0354
2657.50,0.0353
2657.00,0.0353
2656.50,0.0352
2656.00,0.0352
2655.50,0.0351
2655.00,0.0350
2654.50,0.0350
2654.00,0.0349
2653.50,0.0348
2653.00,0.0348
2652.50,0.0347
2652.00,0.0346
2651.50,0.0345
2651.00,0.0345
2650.50,0.0344
2650.00,0.0343
2649.50,0.0342
2649.00,0.0342
2648.50,0.0341
2648.00,0.0340
2647.50,0.0339
2647.00,0.0339
2646.50,0.0338
2646.00,0.0337
2645.50,0.0336
2645.00,0.0336
2644.50,0.0335
2644.00,0.0334
2643.50,0.0334
2643.00,0.0333
2642.50,0.0333
2642.00,0.0332
2641.50,0.0332
2641.00,0.0331
2640.50,0.0331
2640.00,0.0330
2639.50,0.0330
2639.00,0.0329
2638.50,0.0329
2638.00,0.0328
2637.50,0.0328
2637.00,0.0327
2636.50,0.0327
2636.00,0.0327
2635.50,0.0326
2635.00,0.0326
2634.50,0.0326
2634.00,0.0325
2633.50,0.0325
2633.00,0.0325
2632.50,0.0324
2632.00,0.0324
2631.50,0.0324
2631.00,0.0323
2630.50,0.0323
2630.00,0.0323
2629.50,0.0323
2629.00,0.0322
2628.50,0.0322
2628.00,0.0322
2627.50,0.0322
2627.00,0.0321
2626.50,0.0321
2626.00,0.0321
2625.50,0.0321
2625.00,0.0321
2624.50,0.0321
2624.00,0.0320
2623.50,0.0320
2623.00,0.0320
2622.50,0.0320
2622.00,0.0320
2621.50,0.0320
2621.00,0.0319
2620.50,0.0319
2620.00,0.0319
2619.50,0.0319
2619.00,0.0319
2618.50,0.0319
2618.00,0.0319
2617.50,0.0319
2617.00,0.0318
2616.50,0.0318
2616.00,0.0318
2615.50,0.0318
2615.00,0.0318
2614.50,0.0318
2614.00,0.0317
2613.50,0.0317
2613.00,0.0317
2612.50,0.0317
2612.00,0.0317
2611.50,0.0317
2611.00,0.0317
2610.50,0.0317
2610.00,0.0317
2609.50,0.0316
2609.00,0.0316
2608.50,0.0316
2608.00,0.0316
2607.50,0.0316
2607.00,0.0316
2606.50,0.0316
2606.00,0.0316
2605.50,0.0315
2605.00,0.0315
2604.50,0.0315
2604.00,0.0315
2603.50,0.0315
2603.00,0.0315
2602.50,0.0315
2602.00,0.0315
2601.50,0.0315
2601.00,0.0315
2600.50,0.0315
2600.00,0.0315
2599.50,0.0314
2599.00,0.0314
2598.50,0.0314
2598.00,0.0314
2597.50,0.0314
2597.00,0.0314
2596.50,0.0314
2596.00,0.0314
2595.50,0.0314
2595.00,0.0314
2594.50,0.0314
2594.00,0.0314
2593.50,0.0314
2593.00,0.0314
2592.50,0.0314
2592.00,0.0314
2591.50,0.0314
2591.00,0.0314
2590.50,0.0314
2590.00,0.0313
2589.50,0.0313
2589.00,0.0313
2588.50,0.0313
2588.00,0.0313
2587.50,0.0313
2587.00,0.0313
2586.50,0.0313
2586.00,0.0313
2585.50,0.0313
2585.00,0.0313
2584.50,0.0313
2584.00,0.0313
2583.50,0.0313
2583.00,0.0313
2582.50,0.0312
2582.00,0.0312
2581.50,0.0312
2581.00,0.0312
2580.50,0.0312
2580.00,0.0312
2579.50,0.0312
2579.00,0.0312
2578.50,0.0312
2578.00,0.0312
2577.50,0.0312
2577.00,0.0312
2576.50,0.0312
2576.00,0.0312
2575.50,0.0312
2575.00,0.0311
2574.50,0.0311
2574.00,0.0311
2573.50,0.0311
2573.00,0.0311
2572.50,0.0311
2572.00,0.0311
2571.50,0.0311
2571.00,0.0311
2570.50,0.0311
2570.00,0.0311
2569.50,0.0311
2569.00,0.0311
2568.50,0.0311
2568.00,0.0311
2567.50,0.0310
2567.00,0.0310
2566.50,0.0310
2566.00,0.0310
2565.50,0.0310
2565.00,0.0310
2564.50,0.0310
2564.00,0.0310
2563.50,0.0310
2563.00,0.0310
2562.50,0.0310
2562.00,0.0310
2561.50,0.0310
2561.00,0.0310
2560.50,0.0310
2560.00,0.0310
2559.50,0.0310
2559.00,0.0310
2558.50,0.0310
2558.00,0.0309
2557.50,0.0309
2557.00,0.0309
2556.50,0.0309
2556.00,0.0309
2555.50,0.0309
2555.00,0.0309
2554.50,0.0309
2554.00,0.0309
2553.50,0.0309
2553.00,0.0309
2552.50,0.0309
2552.00,0.0309
2551.50,0.0309
2551.00,0.0309
2550.50,0.0308
2550.00,0.0308
2549.50,0.0308
2549.00,0.0308
2548.50,0.0308
2548.00,0.0308
2547.50,0.0308
2547.00,0.0308
2546.50,0.0308
2546.00,0.0308
2545.50,0.0308
2545.00,0.0308
2544.50,0.0308
2544.00,0.0308
2543.50,0.0308
2543.00,0.0308
2542.50,0.0308
2542.00,0.0307
2541.50,0.0307
2541.00,0.0307
2540.50,0.0307
2540.00,0.0307
2539.50,0.0307
2539.00,0.0308
2538.50,0.0308
2538.00,0.0308
2537.50,0.0307
2537.00,0.0307
2536.50,0.0307
2536.00,0.0307
2535.50,0.0307
2535.00,0.0307
2534.50,0.0307
2534.00,0.0307
2533.50,0.0308
2533.00,0.0308
2532.50,0.0308
2532.00,0.0308
2531.50,0.0308
2531.00,0.0308
2530.50,0.0308
2530.00,0.0308
2529.50,0.0308
2529.00,0.0308
2528.50,0.0308
2528.00,0.0309
2527.50,0.0309
2527.00,0.0309
2526.50,0.0309
2526.00,0.0309
2525.50,0.0309
2525.00,0.0309
2524.50,0.0309
2524.00,0.0310
2523.50,0.0310
2523.00,0.0310
2522.50,0.0310
2522.00,0.0310
2521.50,0.0311
2521.00,0.0311
2520.50,0.0311
2520.00,0.0311
2519.50,0.0311
2519.00,0.0312
2518.50,0.0312
2518.00,0.0312
2517.50,0.0312
2517.00,0.0313
2516.50,0.0313
2516.00,0.0313
2515.50,0.0314
2515.00,0.0314
2514.50,0.0315
2514.00,0.0315
2513.50,0.0316
2513.00,0.0316
2512.50,0.0317
2512.00,0.0317
2511.50,0.0318
2511.00,0.0319
2510.50,0.0320
2510.00,0.0320
2509.50,0.0321
2509.00,0.0323
2508.50,0.0324
2508.00,0.0325
2507.50,0.0326
2507.00,0.0328
2506.50,0.0330
2506.00,0.0331
2505.50,0.0333
2505.00,0.0335
2504.50,0.0337
2504.00,0.0339
2503.50,0.0340
2503.00,0.0342
2502.50,0.0344
2502.00,0.0345
2501.50,0.0347
2501.00,0.0348
2500.50,0.0348
2500.00,0.0349
2499.50,0.0349
2499.00,0.0349
2498.50,0.0349
2498.00,0.0348
2497.50,0.0347
2497.00,0.0346
2496.50,0.0345
2496.00,0.0344
2495.50,0.0343
2495.00,0.0341
2494.50,0.0340
2494.00,0.0339
2493.50,0.0338
2493.00,0.0336
2492.50,0.0335
2492.00,0.0334
2491.50,0.0333
2491.00,0.0331
2490.50,0.0330
2490.00,0.0329
2489.50,0.0328
2489.00,0.0327
2488.50,0.0326
2488.00,0.0325
2487.50,0.0324
2487.00,0.0323
2486.50,0.0323
2486.00,0.0322
2485.50,0.0321
2485.00,0.0320
2484.50,0.0320
2484.00,0.0319
2483.50,0.0319
2483.00,0.0318
2482.50,0.0318
2482.00,0.0317
2481.50,0.0317
2481.00,0.0316
2480.50,0.0316
2480.00,0.0315
2479.50,0.0315
2479.00,0.0315
2478.50,0.0315
2478.00,0.0314
2477.50,0.0314
2477.00,0.0314
2476.50,0.0313
2476.00,0.0313
2475.50,0.0313
2475.00,0.0313
2474.50,0.0312
2474.00,0.0312
2473.50,0.0312
2473.00,0.0312
2472.50,0.0312
2472.00,0.0312
2471.50,0.0312
2471.00,0.0311
2470.50,0.0311
2470.00,0.0311
2469.50,0.0311
2469.00,0.0311
2468.50,0.0310
2468.00,0.0310
2467.50,0.0310
2467.00,0.0310
2466.50,0.0310
2466.00,0.0310
2465.50,0.0310
2465.00,0.0310
2464.50,0.0310
2464.00,0.0310
2463.50,0.0310
2463.00,0.0310
2462.50,0.0310
2462.00,0.0309
2461.50,0.0309
2461.00,0.0309
2460.50,0.0309
2460.00,0.0309
2459.50,0.0309
2459.00,0.0309
2458.50,0.0309
2458.00,0.0309
2457.50,0.0309
2457.00,0.0308
2456.50,0.0308
2456.00,0.0308
2455.50,0.0308
2455.00,0.0308
2454.50,0.0308
2454.00,0.0308
2453.50,0.0308
2453.00,0.0308
2452.50,0.0308
2452.00,0.0308
2451.50,0.0308
2451.00,0.0308
2450.50,0.0308
2450.00,0.0308
2449.50,0.0308
2449.00,0.0308
2448.50,0.0307
2448.00,0.0307
2447.50,0.0307
2447.00,0.0307
2446.50,0.0307
2446.00,0.0307
2445.50,0.0307
2445.00,0.0307
2444.50,0.0307
2444.00,0.0307
2443.50,0.0307
2443.00,0.0307
2442.50,0.0307
2442.00,0.0307
2441.50,0.0307
2441.00,0.0307
2440.50,0.0307
2440.00,0.0307
2439.50,0.0307
2439.00,0.0307
2438.50,0.0307
2438.00,0.0307
2437.50,0.0307
2437.00,0.0307
2436.50,0.0306
2436.00,0.0306
2435.50,0.0306
2435.00,0.0306
2434.50,0.0306
2434.00,0.0306
2433.50,0.0306
2433.00,0.0306
2432.50,0.0306
2432.00,0.0306
2431.50,0.0306
2431.00,0.0306
2430.50,0.0306
2430.00,0.0306
2429.50,0.0306
2429.00,0.0306
2428.50,0.0306
2428.00,0.0306
2427.50,0.0306
2427.00,0.0306
2426.50,0.0306
2426.00,0.0306
2425.50,0.0306
2425.00,0.0306
2424.50,0.0306
2424.00,0.0306
2423.50,0.0306
2423.00,0.0306
2422.50,0.0306
2422.00,0.0306
2421.50,0.0306
2421.00,0.0306
2420.50,0.0306
2420.00,0.0306
2419.50,0.0306
2419.00,0.0306
2418.50,0.0306
2418.00,0.0306
2417.50,0.0306
2417.00,0.0306
2416.50,0.0306
2416.00,0.0306
2415.50,0.0306
2415.00,0.0306
2414.50,0.0306
2414.00,0.0306
2413.50,0.0306
2413.00,0.0306
2412.50,0.0306
2412.00,0.0306
2411.50,0.0306
2411.00,0.0306
2410.50,0.0306
2410.00,0.0306
2409.50,0.0306
2409.00,0.0306
2408.50,0.0306
2408.00,0.0306
2407.50,0.0306
2407.00,0.0306
2406.50,0.0306
2406.00,0.0306
2405.50,0.0306
2405.00,0.0306
2404.50,0.0306
2404.00,0.0306
2403.50,0.0306
2403.00,0.0306
2402.50,0.0306
2402.00,0.0306
2401.50,0.0305
2401.00,0.0305
2400.50,0.0305
2400.00,0.0305
2399.50,0.0305
2399.00,0.0305
2398.50,0.0305
2398.00,0.0305
2397.50,0.0305
2397.00,0.0306
2396.50,0.0306
2396.00,0.0305
2395.50,0.0305
2395.00,0.0305
2394.50,0.0305
2394.00,0.0305
2393.50,0.0305
2393.00,0.0305
2392.50,0.0305
2392.00,0.0305
2391.50,0.0305
2391.00,0.0305
2390.50,0.0305
2390.00,0.0305
2389.50,0.0305
2389.00,0.0305
2388.50,0.0305
2388.00,0.0305
2387.50,0.0305
2387.00,0.0306
2386.50,0.0306
2386.00,0.0306
2385.50,0.0306
2385.00,0.0306
2384.50,0.0306
2384.00,0.0306
2383.50,0.0306
2383.00,0.0306
2382.50,0.0306
2382.00,0.0306
2381.50,0.0306
2381.00,0.0306
2380.50,0.0306
2380.00,0.0306
2379.50,0.0306
2379.00,0.0306
2378.50,0.0306
2378.00,0.0306
2377.50,0.0306
2377.00,0.0306
2376.50,0.0306
2376.00,0.0306
2375.50,0.0306
2375.00,0.0306
2374.50,0.0306
2374.00,0.0306
2373.50,0.0306
2373.00,0.0306
2372.50,0.0306
2372.00,0.0306
2371.50,0.0306
2371.00,0.0306
2370.50,0.0306
2370.00,0.0306
2369.50,0.0306
2369.00,0.0306
2368.50,0.0306
2368.00,0.0306
2367.50,0.0306
2367.00,0.0307
2366.50,0.0306
2366.00,0.0306
2365.50,0.0306
2365.00,0.0306
2364.50,0.0306
2364.00,0.0306
2363.50,0.0307
2363.00,0.0307
2362.50,0.0307
2362.00,0.0307
2361.50,0.0307
2361.00,0.0307
2360.50,0.0307
2360.00,0.0307
2359.50,0.0307
2359.00,0.0307
2358.50,0.0307
2358.00,0.0307
2357.50,0.0307
2357.00,0.0308
2356.50,0.0308
2356.00,0.0307
2355.50,0.0307
2355.00,0.0307
2354.50,0.0307
2354.00,0.0307
2353.50,0.0307
2353.00,0.0307
2352.50,0.0307
2352.00,0.0307
2351.50,0.0307
2351.00,0.0307
2350.50,0.0308
2350.00,0.0307
2349.50,0.0307
2349.00,0.0308
2348.50,0.0308
2348.00,0.0308
2347.50,0.0307
2347.00,0.0307
2346.50,0.0307
2346.00,0.0307
2345.50,0.0307
2345.00,0.0307
2344.50,0.0307
2344.00,0.0307
2343.50,0.0307
2343.00,0.0307
2342.50,0.0307
2342.00,0.0307
2341.50,0.0307
2341.00,0.0307
2340.50,0.0308
2340.00,0.0308
2339.50,0.0307
2339.00,0.0308
2338.50,0.0308
2338.00,0.0308
2337.50,0.0308
2337.00,0.0308
2336.50,0.0308
2336.00,0.0308
2335.50,0.0307
2335.00,0.0308
2334.50,0.0308
2334.00,0.0308
2333.50,0.0308
2333.00,0.0308
2332.50,0.0308
2332.00,0.0308
2331.50,0.0308
2331.00,0.0308
2330.50,0.0308
2330.00,0.0308
2329.50,0.0308
2329.00,0.0308
2328.50,0.0308
2328.00,0.0308
2327.50,0.0308
2327.00,0.0308
2326.50,0.0308
2326.00,0.0308
2325.50,0.0308
2325.00,0.0309
2324.50,0.0309
2324.00,0.0309
2323.50,0.0309
2323.00,0.0309
2322.50,0.0309
2322.00,0.0309
2321.50,0.0309
2321.00,0.0309
2320.50,0.0309
2320.00,0.0309
2319.50,0.0309
2319.00,0.0309
2318.50,0.0309
2318.00,0.0309
2317.50,0.0309
2317.00,0.0309
2316.50,0.0309
2316.00,0.0310
2315.50,0.0310
2315.00,0.0310
2314.50,0.0310
2314.00,0.0310
2313.50,0.0310
2313.00,0.0310
2312.50,0.0310
2312.00,0.0310
2311.50,0.0310
2311.00,0.0310
2310.50,0.0310
2310.00,0.0310
2309.50,0.0310
2309.00,0.0310
2308.50,0.0310
2308.00,0.0311
2307.50,0.0311
2307.00,0.0311
2306.50,0.0311
2306.00,0.0311
2305.50,0.0311
2305.00,0.0311
2304.50,0.0311
2304.00,0.0312
2303.50,0.0312
2303.00,0.0312
2302.50,0.0312
2302.00,0.0312
2301.50,0.0312
2301.00,0.0312
2300.50,0.0312
2300.00,0.0312
2299.50,0.0312
2299.00,0.0312
2298.50,0.0312
2298.00,0.0313
2297.50,0.0313
2297.00,0.0313
2296.50,0.0313
2296.00,0.0313
2295.50,0.0313
2295.00,0.0313
2294.50,0.0313
2294.00,0.0314
2293.50,0.0314
2293.00,0.0314
2292.50,0.0314
2292.00,0.0314
2291.50,0.0314
2291.00,0.0314
2290.50,0.0314
2290.00,0.0315
2289.50,0.0315
2289.00,0.0315
2288.50,0.0315
2288.00,0.0315
2287.50,0.0315
2287.00,0.0315
2286.50,0.0315
2286.00,0.0316
2285.50,0.0316
2285.00,0.0316
2284.50,0.0316
2284.00,0.0316
2283.50,0.0316
2283.00,0.0317
2282.50,0.0317
2282.00,0.0317
2281.50,0.0317
2281.00,0.0317
2280.50,0.0317
2280.00,0.0318
2279.50,0.0318
2279.00,0.0318
2278.50,0.0318
2278.00,0.0318
2277.50,0.0318
2277.00,0.0318
2276.50,0.0318
2276.00,0.0318
2275.50,0.0319
2275.00,0.0319
2274.50,0.0319
2274.00,0.0319
2273.50,0.0319
2273.00,0.0319
2272.50,0.0319
2272.00,0.0319
2271.50,0.0319
2271.00,0.0319
2270.50,0.0319
2270.00,0.0319
2269.50,0.0319
2269.00,0.0319
2268.50,0.0319
2268.00,0.0319
2267.50,0.0319
2267.00,0.0319
2266.50,0.0319
2266.00,0.0319
2265.50,0.0319
2265.00,0.0319
2264.50,0.0319
2264.00,0.0320
2263.50,0.0320
2263.00,0.0320
2262.50,0.0320
2262.00,0.0320
2261.50,0.0320
2261.00,0.0320
2260.50,0.0320
2260.00,0.0320
2259.50,0.0320
2259.00,0.0320
2258.50,0.0320
2258.00,0.0320
2257.50,0.0320
2257.00,0.0320
2256.50,0.0320
2256.00,0.0320
2255.50,0.0321
2255.00,0.0321
2254.50,0.0321
2254.00,0.0321
2253.50,0.0321
2253.00,0.0321
2252.50,0.0321
2252.00,0.0321
2251.50,0.0321
2251.00,0.0322
2250.50,0.0322
2250.00,0.0322
2249.50,0.0322
2249.00,0.0322
2248.50,0.0322
2248.00,0.0322
2247.50,0.0323
2247.00,0.0323
2246.50,0.0323
2246.00,0.0323
2245.50,0.0323
2245.00,0.0323
2244.50,0.0323
2244.00,0.0324
2243.50,0.0324
2243.00,0.0324
2242.50,0.0324
2242.00,0.0324
2241.50,0.0325
2241.00,0.0325
2240.50,0.0325
2240.00,0.0325
2239.50,0.0325
2239.00,0.0326
2238.50,0.0326
2238.00,0.0326
2237.50,0.0326
2237.00,0.0327
2236.50,0.0327
2236.00,0.0327
2235.50,0.0327
2235.00,0.0328
2234.50,0.0328
2234.00,0.0328
2233.50,0.0329
2233.00,0.0329
2232.50,0.0329
2232.00,0.0330
2231.50,0.0330
2231.00,0.0330
2230.50,0.0331
2230.00,0.0331
2229.50,0.0332
2229.00,0.0332
2228.50,0.0333
2228.00,0.0333
2227.50,0.0334
2227.00,0.0334
2226.50,0.0334
2226.00,0.0335
2225.50,0.0335
2225.00,0.0336
2224.50,0.0336
2224.00,0.0337
2223.50,0.0337
2223.00,0.0338
2222.50,0.0338
2222.00,0.0339
2221.50,0.0339
2221.00,0.0340
2220.50,0.0340
2220.00,0.0341
2219.50,0.0342
2219.00,0.0342
2218.50,0.0343
2218.00,0.0343
2217.50,0.0344
2217.00,0.0345
2216.50,0.0345
2216.00,0.0346
2215.50,0.0347
2215.00,0.0348
2214.50,0.0348
2214.00,0.0349
2213.50,0.0350
2213.00,0.0351
2212.50,0.0352
2212.00,0.0352
2211.50,0.0353
2211.00,0.0354
2210.50,0.0355
2210.00,0.0356
2209.50,0.0357
2209.00,0.0358
2208.50,0.0359
2208.00,0.0360
2207.50,0.0361
2207.00,0.0363
2206.50,0.0364
2206.00,0.0365
2205.50,0.0366
2205.00,0.0368
2204.50,0.0369
2204.00,0.0370
2203.50,0.0372
2203.00,0.0374
2202.50,0.0375
2202.00,0.0377
2201.50,0.0379
2201.00,0.0380
2200.50,0.0382
2200.00,0.0384
2199.50,0.0386
2199.00,0.0388
2198.50,0.0390
2198.00,0.0392
2197.50,0.0394
2197.00,0.0397
2196.50,0.0399
2196.00,0.0401
2195.50,0.0404
2195.00,0.0407
2194.50,0.0409
2194.00,0.0412
2193.50,0.0415
2193.00,0.0418
2192.50,0.0421
2192.00,0.0424
2191.50,0.0428
2191.00,0.0431
2190.50,0.0435
2190.00,0.0438
2189.50,0.0442
2189.00,0.0446
2188.50,0.0450
2188.00,0.0454
2187.50,0.0459
2187.00,0.0463
2186.50,0.0468
2186.00,0.0473
2185.50,0.0477
2185.00,0.0482
2184.50,0.0488
2184.00,0.0493
2183.50,0.0498
2183.00,0.0504
2182.50,0.0510
2182.00,0.0516
2181.50,0.0522
2181.00,0.0528
2180.50,0.0534
2180.00,0.0540
2179.50,0.0547
2179.00,0.0554
2178.50,0.0560
2178.00,0.0567
2177.50,0.0573
2177.00,0.0580
2176.50,0.0587
2176.00,0.0594
2175.50,0.0600
2175.00,0.0607
2174.50,0.0614
2174.00,0.0620
2173.50,0.0627
2173.00,0.0633
2172.50,0.0639
2172.00,0.0645
2171.50,0.0651
2171.00,0.0657
2170.50,0.0663
2170.00,0.0668
2169.50,0.0673
2169.00,0.0678
2168.50,0.0683
2168.00,0.0687
2167.50,0.0691
2167.00,0.0695
2166.50,0.0698
2166.00,0.0701
2165.50,0.0704
2165.00,0.0706
2164.50,0.0708
2164.00,0.0710
2163.50,0.0711
2163.00,0.0712
2162.50,0.0712
2162.00,0.0712
2161.50,0.0712
2161.00,0.0711
2160.50,0.0710
2160.00,0.0708
2159.50,0.0706
2159.00,0.0704
2158.50,0.0701
2158.00,0.0698
2157.50,0.0695
2157.00,0.0691
2156.50,0.0687
2156.00,0.0682
2155.50,0.0678
2155.00,0.0673
2154.50,0.0668
2154.00,0.0662
2153.50,0.0657
2153.00,0.0651
2152.50,0.0645
2152.00,0.0639
2151.50,0.0633
2151.00,0.0626
2150.50,0.0620
2150.00,0.0613
2149.50,0.0607
2149.00,0.0600
2148.50,0.0593
2148.00,0.0587
2147.50,0.0580
2147.00,0.0573
2146.50,0.0567
2146.00,0.0560
2145.50,0.0554
2145.00,0.0547
2144.50,0.0541
2144.00,0.0535
2143.50,0.0528
2143.00,0.0522
2142.50,0.0516
2142.00,0.0511
2141.50,0.0505
2141.00,0.0499
2140.50,0.0494
2140.00,0.0489
2139.50,0.0484
2139.00,0.0479
2138.50,0.0474
2138.00,0.0469
2137.50,0.0465
2137.00,0.0460
2136.50,0.0456
2136.00,0.0452
2135.50,0.0448
2135.00,0.0444
2134.50,0.0440
2134.00,0.0436
2133.50,0.0433
2133.00,0.0429
2132.50,0.0426
2132.00,0.0423
2131.50,0.0420
2131.00,0.0418
2130.50,0.0415
2130.00,0.0412
2129.50,0.0410
2129.00,0.0407
2128.50,0.0405
2128.00,0.0403
2127.50,0.0401
2127.00,0.0399
2126.50,0.0397
2126.00,0.0395
2125.50,0.0393
2125.00,0.0392
2124.50,0.0390
2124.00,0.0389
2123.50,0.0387
2123.00,0.0386
2122.50,0.0385
2122.00,0.0383
2121.50,0.0382
2121.00,0.0381
2120.50,0.0380
2120.00,0.0379
2119.50,0.0378
2119.00,0.0377
2118.50,0.0376
2118.00,0.0375
2117.50,0.0374
2117.00,0.0373
2116.50,0.0372
2116.00,0.0371
2115.50,0.0371
2115.00,0.0370
2114.50,0.0369
2114.00,0.0368
2113.50,0.0368
2113.00,0.0367
2112.50,0.0367
2112.00,0.0366
2111.50,0.0366
2111.00,0.0365
2110.50,0.0365
2110.00,0.0364
2109.50,0.0364
2109.00,0.0364
2108.50,0.0363
2108.00,0.0363
2107.50,0.0362
2107.00,0.0362
2106.50,0.0362
2106.00,0.0361
2105.50,0.0361
2105.00,0.0360
2104.50,0.0360
2104.00,0.0360
2103.50,0.0359
2103.00,0.0359
2102.50,0.0359
2102.00,0.0358
2101.50,0.0358
2101.00,0.0358
2100.50,0.0357
2100.00,0.0357
2099.50,0.0357
2099.00,0.0356
2098.50,0.0356
2098.00,0.0356
2097.50,0.0356
2097.00,0.0355
2096.50,0.0355
2096.00,0.0355
2095.50,0.0355
2095.00,0.0354
2094.50,0.0354
2094.00,0.0354
2093.50,0.0354
2093.00,0.0354
2092.50,0.0354
2092.00,0.0354
2091.50,0.0354
2091.00,0.0354
2090.50,0.0354
2090.00,0.0353
2089.50,0.0353
2089.00,0.0353
2088.50,0.0353
2088.00,0.0353
2087.50,0.0353
2087.00,0.0354
2086.50,0.0354
2086.00,0.0354
2085.50,0.0354
2085.00,0.0354
2084.50,0.0354
2084.00,0.0354
2083.50,0.0354
2083.00,0.0354
2082.50,0.0354
2082.00,0.0354
2081.50,0.0355
2081.00,0.0355
2080.50,0.0355
2080.00,0.0355
2079.50,0.0355
2079.00,0.0355
2078.50,0.0355
2078.00,0.0355
2077.50,0.0356
2077.00,0.0356
2076.50,0.0356
2076.00,0.0356
2075.50,0.0357
2075.00,0.0357
2074.50,0.0357
2074.00,0.0357
2073.50,0.0358
2073.00,0.0358
2072.50,0.0358
2072.00,0.0358
2071.50,0.0359
2071.00,0.0359
2070.50,0.0359
2070.00,0.0360
2069.50,0.0360
2069.00,0.0361
2068.50,0.0361
2068.00,0.0361
2067.50,0.0362
2067.00,0.0362
2066.50,0.0363
2066.00,0.0363
2065.50,0.0364
2065.00,0.0364
2064.50,0.0365
2064.00,0.0365
2063.50,0.0365
2063.00,0.0366
2062.50,0.0366
2062.00,0.0367
2061.50,0.0367
2061.00,0.0368
2060.50,0.0368
2060.00,0.0369
2059.50,0.0369
2059.00,0.0370
2058.50,0.0370
2058.00,0.0371
2057.50,0.0371
2057.00,0.0372
2056.50,0.0372
2056.00,0.0373
2055.50,0.0373
2055.00,0.0373
2054.50,0.0374
2054.00,0.0374
2053.50,0.0374
2053.00,0.0374
2052.50,0.0374
2052.00,0.0374
2051.50,0.0375
2051.00,0.0374
2050.50,0.0374
2050.00,0.0374
2049.50,0.0374
2049.00,0.0373
2048.50,0.0373
2048.00,0.0372
2047.50,0.0371
2047.00,0.0370
2046.50,0.0369
2046.00,0.0368
2045.50,0.0367
2045.00,0.0366
2044.50,0.0365
2044.00,0.0363
2043.50,0.0362
2043.00,0.0361
2042.50,0.0359
2042.00,0.0358
2041.50,0.0357
2041.00,0.0356
2040.50,0.0354
2040.00,0.0353
2039.50,0.0352
2039.00,0.0351
2038.50,0.0350
2038.00,0.0349
2037.50,0.0348
2037.00,0.0347
2036.50,0.0346
2036.00,0.0346
2035.50,0.0345
2035.00,0.0345
2034.50,0.0344
2034.00,0.0343
2033.50,0.0343
2033.00,0.0343
2032.50,0.0343
2032.00,0.0342
2031.50,0.0342
2031.00,0.0342
2030.50,0.0342
2030.00,0.0342
2029.50,0.0342
2029.00,0.0342
2028.50,0.0342
2028.00,0.0342
2027.50,0.0342
2027.00,0.0343
2026.50,0.0343
2026.00,0.0343
2025.50,0.0344
2025.00,0.0344
2024.50,0.0344
2024.00,0.0345
2023.50,0.0345
2023.00,0.0345
2022.50,0.0346
2022.00,0.0346
2021.50,0.0347
2021.00,0.0347
2020.50,0.0348
2020.00,0.0348
2019.50,0.0349
2019.00,0.0350
2018.50,0.0350
2018.00,0.0351
2017.50,0.0352
2017.00,0.0352
2016.50,0.0353
2016.00,0.0353
2015.50,0.0354
2015.00,0.0355
2014.50,0.0356
2014.00,0.0357
2013.50,0.0357
2013.00,0.0358
2012.50,0.0359
2012.00,0.0360
2011.50,0.0360
2011.00,0.0361
2010.50,0.0362
2010.00,0.0363
2009.50,0.0363
2009.00,0.0364
2008.50,0.0364
2008.00,0.0365
2007.50,0.0366
2007.00,0.0366
2006.50,0.0366
2006.00,0.0367
2005.50,0.0368
2005.00,0.0368
2004.50,0.0369
2004.00,0.0369
2003.50,0.0370
2003.00,0.0370
2002.50,0.0370
2002.00,0.0371
2001.50,0.0371
2001.00,0.0372
2000.50,0.0372
2000.00,0.0373
1999.50,0.0373
1999.00,0.0374
1998.50,0.0374
1998.00,0.0374
1997.50,0.0374
1997.00,0.0374
1996.50,0.0374
1996.00,0.0374
1995.50,0.0374
1995.00,0.0374
1994.50,0.0374
1994.00,0.0374
1993.50,0.0374
1993.00,0.0374
1992.50,0.0375
1992.00,0.0375
1991.50,0.0374
1991.00,0.0374
1990.50,0.0374
1990.00,0.0375
1989.50,0.0375
1989.00,0.0376
1988.50,0.0377
1988.00,0.0377
1987.50,0.0378
1987.00,0.0378
1986.50,0.0379
1986.00,0.0379
1985.50,0.0380
1985.00,0.0381
1984.50,0.0381
1984.00,0.0382
1983.50,0.0383
1983.00,0.0384
1982.50,0.0385
1982.00,0.0386
1981.50,0.0387
1981.00,0.0388
1980.50,0.0389
1980.00,0.0390
1979.50,0.0391
1979.00,0.0393
1978.50,0.0394
1978.00,0.0395
1977.50,0.0397
1977.00,0.0398
1976.50,0.0400
1976.00,0.0401
1975.50,0.0403
1975.00,0.0404
1974.50,0.0406
1974.00,0.0408
1973.50,0.0410
1973.00,0.0412
1972.50,0.0413
1972.00,0.0415
1971.50,0.0417
1971.00,0.0419
1970.50,0.0421
1970.00,0.0422
1969.50,0.0424
1969.00,0.0426
1968.50,0.0428
1968.00,0.0431
1967.50,0.0433
1967.00,0.0435
1966.50,0.0436
1966.00,0.0438
1965.50,0.0439
1965.00,0.0441
1964.50,0.0442
1964.00,0.0444
1963.50,0.0446
1963.00,0.0447
1962.50,0.0449
1962.00,0.0450
1961.50,0.0451
1961.00,0.0453
1960.50,0.0454
1960.00,0.0456
1959.50,0.0457
1959.00,0.0458
1958.50,0.0460
1958.00,0.0461
1957.50,0.0463
1957.00,0.0464
1956.50,0.0466
1956.00,0.0467
1955.50,0.0469
1955.00,0.0471
1954.50,0.0472
1954.00,0.0474
1953.50,0.0476
1953.00,0.0477
1952.50,0.0479
1952.00,0.0481
1951.50,0.0483
1951.00,0.0485
1950.50,0.0487
1950.00,0.0488
1949.50,0.0490
1949.00,0.0492
1948.50,0.0493
1948.00,0.0495
1947.50,0.0496
1947.00,0.0498
1946.50,0.0499
1946.00,0.0500
1945.50,0.0501
1945.00,0.0501
1944.50,0.0501
1944.00,0.0502
1943.50,0.0502
1943.00,0.0501
1942.50,0.0500
1942.00,0.0499
1941.50,0.0497
1941.00,0.0495
1940.50,0.0493
1940.00,0.0491
1939.50,0.0489
1939.00,0.0486
1938.50,0.0484
1938.00,0.0481
1937.50,0.0478
1937.00,0.0475
1936.50,0.0472
1936.00,0.0469
1935.50,0.0467
1935.00,0.0464
1934.50,0.0461
1934.00,0.0459
1933.50,0.0457
1933.00,0.0454
1932.50,0.0452
1932.00,0.0450
1931.50,0.0448
1931.00,0.0447
1930.50,0.0445
1930.00,0.0443
1929.50,0.0442
1929.00,0.0441
1928.50,0.0439
1928.00,0.0438
1927.50,0.0437
1927.00,0.0436
1926.50,0.0435
1926.00,0.0434
1925.50,0.0433
1925.00,0.0433
1924.50,0.0432
1924.00,0.0432
1923.50,0.0432
1923.00,0.0432
1922.50,0.0431
1922.00,0.0430
1921.50,0.0429
1921.00,0.0428
1920.50,0.0427
1920.00,0.0426
1919.50,0.0426
1919.00,0.0425
1918.50,0.0425
1918.00,0.0424
1917.50,0.0423
1917.00,0.0422
1916.50,0.0421
1916.00,0.0420
1915.50,0.0419
1915.00,0.0419
1914.50,0.0418
1914.00,0.0417
1913.50,0.0416
1913.00,0.0414
1912.50,0.0413
1912.00,0.0412
1911.50,0.0411
1911.00,0.0410
1910.50,0.0409
1910.00,0.0408
1909.50,0.0407
1909.00,0.0406
1908.50,0.0405
1908.00,0.0403
1907.50,0.0402
1907.00,0.0401
1906.50,0.0400
1906.00,0.0399
1905.50,0.0399
1905.00,0.0398
1904.50,0.0397
1904.00,0.0396
1903.50,0.0396
1903.00,0.0395
1902.50,0.0394
1902.00,0.0394
1901.50,0.0393
1901.00,0.0393
1900.50,0.0392
1900.00,0.0392
1899.50,0.0392
1899.00,0.0391
1898.50,0.0391
1898.00,0.0391
1897.50,0.0391
1897.00,0.0391
1896.50,0.0391
1896.00,0.0391
1895.50,0.0391
1895.00,0.0391
1894.50,0.0391
1894.00,0.0390
1893.50,0.0390
1893.00,0.0390
1892.50,0.0390
1892.00,0.0390
1891.50,0.0390
1891.00,0.0391
1890.50,0.0391
1890.00,0.0392
1889.50,0.0391
1889.00,0.0391
1888.50,0.0391
1888.00,0.0390
1887.50,0.0390
1887.00,0.0390
1886.50,0.0391
1886.00,0.0391
1885.50,0.0391
1885.00,0.0391
1884.50,0.0391
1884.00,0.0391
1883.50,0.0391
1883.00,0.0391
1882.50,0.0391
1882.00,0.0391
1881.50,0.0391
1881.00,0.0391
1880.50,0.0391
1880.00,0.0392
1879.50,0.0392
1879.00,0.0392
1878.50,0.0392
1878.00,0.0392
1877.50,0.0392
1877.00,0.0392
1876.50,0.0392
1876.00,0.0392
1875.50,0.0392
1875.00,0.0392
1874.50,0.0392
1874.00,0.0392
1873.50,0.0392
1873.00,0.0392
1872.50,0.0392
1872.00,0.0392
1871.50,0.0392
1871.00,0.0393
1870.50,0.0393
1870.00,0.0393
1869.50,0.0393
1869.00,0.0393
1868.50,0.0394
1868.00,0.0394
1867.50,0.0394
1867.00,0.0393
1866.50,0.0393
1866.00,0.0393
1865.50,0.0393
1865.00,0.0393
1864.50,0.0393
1864.00,0.0393
1863.50,0.0392
1863.00,0.0392
1862.50,0.0392
1862.00,0.0392
1861.50,0.0392
1861.00,0.0392
1860.50,0.0392
1860.00,0.0392
1859.50,0.0392
1859.00,0.0392
1858.50,0.0393
1858.00,0.0393
1857.50,0.0393
1857.00,0.0393
1856.50,0.0393
1856.00,0.0393
1855.50,0.0393
1855.00,0.0393
1854.50,0.0393
1854.00,0.0394
1853.50,0.0393
1853.00,0.0393
1852.50,0.0393
1852.00,0.0393
1851.50,0.0393
1851.00,0.0393
1850.50,0.0393
1850.00,0.0393
1849.50,0.0393
1849.00,0.0393
1848.50,0.0393
1848.00,0.0392
1847.50,0.0392
1847.00,0.0392
1846.50,0.0392
1846.00,0.0392
1845.50,0.0392
1845.00,0.0392
1844.50,0.0392
1844.00,0.0391
1843.50,0.0390
1843.00,0.0390
1842.50,0.0390
1842.00,0.0390
1841.50,0.0390
1841.00,0.0390
1840.50,0.0390
1840.00,0.0390
1839.50,0.0390
1839.00,0.0390
1838.50,0.0390
1838.00,0.0390
1837.50,0.0390
1837.00,0.0390
1836.50,0.0390
1836.00,0.0390
1835.50,0.0390
1835.00,0.0390
1834.50,0.0390
1834.00,0.0390
1833.50,0.0390
1833.00,0.0391
1832.50,0.0391
1832.00,0.0391
1831.50,0.0392
1831.00,0.0394
1830.50,0.0395
1830.00,0.0395
1829.50,0.0395
1829.00,0.0395
1828.50,0.0394
1828.00,0.0394
1827.50,0.0394
1827.00,0.0394
1826.50,0.0395
1826.00,0.0395
1825.50,0.0396
1825.00,0.0396
1824.50,0.0396
1824.00,0.0396
1823.50,0.0396
1823.00,0.0396
1822.50,0.0397
1822.00,0.0397
1821.50,0.0398
1821.00,0.0398
1820.50,0.0399
1820.00,0.0399
1819.50,0.0399
1819.00,0.0400
1818.50,0.0400
1818.00,0.0400
1817.50,0.0401
1817.00,0.0401
1816.50,0.0402
1816.00,0.0403
1815.50,0.0403
1815.00,0.0404
1814.50,0.0405
1814.00,0.0405
1813.50,0.0406
1813.00,0.0406
1812.50,0.0407
1812.00,0.0408
1811.50,0.0408
1811.00,0.0409
1810.50,0.0410
1810.00,0.0410
1809.50,0.0411
1809.00,0.0412
1808.50,0.0413
1808.00,0.0413
1807.50,0.0414
1807.00,0.0415
1806.50,0.0416
1806.00,0.0416
1805.50,0.0417
1805.00,0.0417
1804.50,0.0418
1804.00,0.0419
1803.50,0.0420
1803.00,0.0421
1802.50,0.0421
1802.00,0.0421
1801.50,0.0422
1801.00,0.0422
1800.50,0.0424
1800.00,0.0425
1799.50,0.0426
1799.00,0.0427
1798.50,0.0428
1798.00,0.0428
1797.50,0.0428
1797.00,0.0429
1796.50,0.0430
1796.00,0.0431
1795.50,0.0432
1795.00,0.0433
1794.50,0.0433
1794.00,0.0434
1793.50,0.0434
1793.00,0.0435
1792.50,0.0436
1792.00,0.0436
1791.50,0.0436
1791.00,0.0436
1790.50,0.0437
1790.00,0.0438
1789.50,0.0439
1789.00,0.0440
1788.50,0.0440
1788.00,0.0441
1787.50,0.0441
1787.00,0.0441
1786.50,0.0441
1786.00,0.0441
1785.50,0.0442
1785.00,0.0442
1784.50,0.0442
1784.00,0.0443
1783.50,0.0444
1783.00,0.0444
1782.50,0.0445
1782.00,0.0445
1781.50,0.0446
1781.00,0.0447
1780.50,0.0446
1780.00,0.0446
1779.50,0.0446
1779.00,0.0446
1778.50,0.0446
1778.00,0.0446
1777.50,0.0447
1777.00,0.0447
1776.50,0.0447
1776.00,0.0447
1775.50,0.0448
1775.00,0.0448
1774.50,0.0448
1774.00,0.0448
1773.50,0.0449
1773.00,0.0449
1772.50,0.0449
1772.00,0.0449
1771.50,0.0449
1771.00,0.0448
1770.50,0.0447
1770.00,0.0447
1769.50,0.0447
1769.00,0.0447
1768.50,0.0446
1768.00,0.0446
1767.50,0.0446
1767.00,0.0445
1766.50,0.0445
1766.00,0.0445
1765.50,0.0445
1765.00,0.0445
1764.50,0.0446
1764.00,0.0446
1763.50,0.0446
1763.00,0.0446
1762.50,0.0446
1762.00,0.0445
1761.50,0.0445
1761.00,0.0445
1760.50,0.0444
1760.00,0.0444
1759.50,0.0444
1759.00,0.0444
1758.50,0.0444
1758.00,0.0444
1757.50,0.0443
1757.00,0.0443
1756.50,0.0442
1756.00,0.0441
1755.50,0.0441
1755.00,0.0441
1754.50,0.0441
1754.00,0.0441
1753.50,0.0441
1753.00,0.0440
1752.50,0.0438
1752.00,0.0435
1751.50,0.0433
1751.00,0.0434
1750.50,0.0436
1750.00,0.0438
1749.50,0.0440
1749.00,0.0441
1748.50,0.0442
1748.00,0.0442
1747.50,0.0443
1747.00,0.0443
1746.50,0.0442
1746.00,0.0443
1745.50,0.0443
1745.00,0.0444
1744.50,0.0444
1744.00,0.0445
1743.50,0.0445
1743.00,0.0445
1742.50,0.0445
1742.00,0.0445
1741.50,0.0445
1741.00,0.0445
1740.50,0.0446
1740.00,0.0447
1739.50,0.0447
1739.00,0.0447
1738.50,0.0446
1738.00,0.0446
1737.50,0.0446
1737.00,0.0446
1736.50,0.0446
1736.00,0.0447
1735.50,0.0448
1735.00,0.0447
1734.50,0.0443
1734.00,0.0441
1733.50,0.0441
1733.00,0.0444
1732.50,0.0446
1732.00,0.0449
1731.50,0.0451
1731.00,0.0452
1730.50,0.0452
1730.00,0.0452
1729.50,0.0452
1729.00,0.0452
1728.50,0.0453
1728.00,0.0453
1727.50,0.0453
1727.00,0.0454
1726.50,0.0454
1726.00,0.0454
1725.50,0.0455
1725.00,0.0455
1724.50,0.0455
1724.00,0.0455
1723.50,0.0454
1723.00,0.0454
1722.50,0.0455
1722.00,0.0455
1721.50,0.0456
1721.00,0.0456
1720.50,0.0457
1720.00,0.0457
1719.50,0.0457
1719.00,0.0456
1718.50,0.0455
1718.00,0.0455
1717.50,0.0455
1717.00,0.0455
1716.50,0.0456
1716.00,0.0457
1715.50,0.0458
1715.00,0.0458
1714.50,0.0458
1714.00,0.0458
1713.50,0.0458
1713.00,0.0457
1712.50,0.0457
1712.00,0.0457
1711.50,0.0457
1711.00,0.0457
1710.50,0.0457
1710.00,0.0457
1709.50,0.0457
1709.00,0.0457
1708.50,0.0457
1708.00,0.0457
1707.50,0.0457
1707.00,0.0457
1706.50,0.0458
1706.00,0.0459
1705.50,0.0460
1705.00,0.0461
1704.50,0.0461
1704.00,0.0461
1703.50,0.0461
1703.00,0.0460
1702.50,0.0460
1702.00,0.0460
1701.50,0.0460
1701.00,0.0458
1700.50,0.0453
1700.00,0.0454
1699.50,0.0457
1699.00,0.0459
1698.50,0.0459
1698.00,0.0459
1697.50,0.0460
1697.00,0.0461
1696.50,0.0461
1696.00,0.0460
1695.50,0.0460
1695.00,0.0460
1694.50,0.0460
1694.00,0.0460
1693.50,0.0461
1693.00,0.0461
1692.50,0.0461
1692.00,0.0461
1691.50,0.0462
1691.00,0.0462
1690.50,0.0462
1690.00,0.0462
1689.50,0.0463
1689.00,0.0463
1688.50,0.0463
1688.00,0.0463
1687.50,0.0464
1687.00,0.0465
1686.50,0.0465
1686.00,0.0464
1685.50,0.0464
1685.00,0.0465
1684.50,0.0466
1684.00,0.0466
1683.50,0.0468
1683.00,0.0470
1682.50,0.0471
1682.00,0.0471
1681.50,0.0472
1681.00,0.0473
1680.50,0.0473
1680.00,0.0473
1679.50,0.0473
1679.00,0.0473
1678.50,0.0473
1678.00,0.0473
1677.50,0.0474
1677.00,0.0475
1676.50,0.0475
1676.00,0.0475
1675.50,0.0475
1675.00,0.0476
1674.50,0.0476
1674.00,0.0477
1673.50,0.0478
1673.00,0.0479
1672.50,0.0480
1672.00,0.0481
1671.50,0.0482
1671.00,0.0483
1670.50,0.0483
1670.00,0.0484
1669.50,0.0484
1669.00,0.0485
1668.50,0.0487
1668.00,0.0488
1667.50,0.0488
1667.00,0.0488
1666.50,0.0489
1666.00,0.0490
1665.50,0.0490
1665.00,0.0491
1664.50,0.0491
1664.00,0.0492
1663.50,0.0493
1663.00,0.0494
1662.50,0.0495
1662.00,0.0496
1661.50,0.0496
1661.00,0.0496
1660.50,0.0496
1660.00,0.0497
1659.50,0.0498
1659.00,0.0498
1658.50,0.0499
1658.00,0.0500
1657.50,0.0502
1657.00,0.0503
1656.50,0.0504
1656.00,0.0505
1655.50,0.0506
1655.00,0.0506
1654.50,0.0506
1654.00,0.0507
1653.50,0.0509
1653.00,0.0508
1652.50,0.0512
1652.00,0.0516
1651.50,0.0516
1651.00,0.0516
1650.50,0.0516
1650.00,0.0516
1649.50,0.0517
1649.00,0.0517
1648.50,0.0517
1648.00,0.0517
1647.50,0.0517
1647.00,0.0517
1646.50,0.0518
1646.00,0.0518
1645.50,0.0520
1645.00,0.0520
1644.50,0.0520
1644.00,0.0520
1643.50,0.0521
1643.00,0.0522
1642.50,0.0522
1642.00,0.0522
1641.50,0.0522
1641.00,0.0522
1640.50,0.0523
1640.00,0.0523
1639.50,0.0524
1639.00,0.0525
1638.50,0.0525
1638.00,0.0526
1637.50,0.0526
1637.00,0.0527
1636.50,0.0528
1636.00,0.0528
1635.50,0.0529
1635.00,0.0531
1634.50,0.0533
1634.00,0.0534
1633.50,0.0535
1633.00,0.0535
1632.50,0.0536
1632.00,0.0536
1631.50,0.0537
1631.00,0.0537
1630.50,0.0537
1630.00,0.0538
1629.50,0.0538
1629.00,0.0539
1628.50,0.0540
1628.00,0.0541
1627.50,0.0542
1627.00,0.0543
1626.50,0.0544
1626.00,0.0545
1625.50,0.0546
1625.00,0.0547
1624.50,0.0549
1624.00,0.0550
1623.50,0.0551
1623.00,0.0552
1622.50,0.0553
1622.00,0.0553
1621.50,0.0554
1621.00,0.0555
1620.50,0.0556
1620.00,0.0557
1619.50,0.0557
1619.00,0.0558
1618.50,0.0559
1618.00,0.0559
1617.50,0.0560
1617.00,0.0562
1616.50,0.0564
1616.00,0.0565
1615.50,0.0565
1615.00,0.0565
1614.50,0.0566
1614.00,0.0567
1613.50,0.0567
1613.00,0.0568
1612.50,0.0569
1612.00,0.0569
1611.50,0.0569
1611.00,0.0569
1610.50,0.0570
1610.00,0.0570
1609.50,0.0571
1609.00,0.0572
1608.50,0.0573
1608.00,0.0574
1607.50,0.0575
1607.00,0.0576
1606.50,0.0577
1606.00,0.0577
1605.50,0.0578
1605.00,0.0579
1604.50,0.0580
1604.00,0.0582
1603.50,0.0583
1603.00,0.0585
1602.50,0.0587
1602.00,0.0590
1601.50,0.0592
1601.00,0.0596
1600.50,0.0600
1600.00,0.0605
1599.50,0.0611
1599.00,0.0618
1598.50,0.0625
1598.00,0.0631
1597.50,0.0636
1597.00,0.0639
1596.50,0.0639
1596.00,0.0635
1595.50,0.0629
1595.00,0.0622
1594.50,0.0614
1594.00,0.0607
1593.50,0.0601
1593.00,0.0596
1592.50,0.0592
1592.00,0.0588
1591.50,0.0585
1591.00,0.0583
1590.50,0.0581
1590.00,0.0579
1589.50,0.0577
1589.00,0.0576
1588.50,0.0574
1588.00,0.0573
1587.50,0.0572
1587.00,0.0571
1586.50,0.0571
1586.00,0.0570
1585.50,0.0569
1585.00,0.0569
1584.50,0.0568
1584.00,0.0568
1583.50,0.0568
1583.00,0.0567
1582.50,0.0567
1582.00,0.0568
1581.50,0.0568
1581.00,0.0569
1580.50,0.0569
1580.00,0.0570
1579.50,0.0570
1579.00,0.0570
1578.50,0.0571
1578.00,0.0571
1577.50,0.0571
1577.00,0.0571
1576.50,0.0570
1576.00,0.0568
1575.50,0.0566
1575.00,0.0564
1574.50,0.0563
1574.00,0.0561
1573.50,0.0559
1573.00,0.0558
1572.50,0.0556
1572.00,0.0554
1571.50,0.0552
1571.00,0.0551
1570.50,0.0550
1570.00,0.0547
1569.50,0.0545
1569.00,0.0542
1568.50,0.0540
1568.00,0.0538
1567.50,0.0537
1567.00,0.0536
1566.50,0.0535
1566.00,0.0534
1565.50,0.0532
1565.00,0.0531
1564.50,0.0530
1564.00,0.0529
1563.50,0.0528
1563.00,0.0528
1562.50,0.0529
1562.00,0.0529
1561.50,0.0529
1561.00,0.0529
1560.50,0.0526
1560.00,0.0520
1559.50,0.0515
1559.00,0.0514
1558.50,0.0517
1558.00,0.0522
1557.50,0.0526
1557.00,0.0527
1556.50,0.0527
1556.00,0.0526
1555.50,0.0527
1555.00,0.0527
1554.50,0.0525
1554.00,0.0523
1553.50,0.0522
1553.00,0.0521
1552.50,0.0521
1552.00,0.0522
1551.50,0.0522
1551.00,0.0523
1550.50,0.0523
1550.00,0.0522
1549.50,0.0523
1549.00,0.0524
1548.50,0.0525
1548.00,0.0526
1547.50,0.0527
1547.00,0.0529
1546.50,0.0530
1546.00,0.0531
1545.50,0.0532
1545.00,0.0535
1544.50,0.0538
1544.00,0.0540
1543.50,0.0543
1543.00,0.0546
1542.50,0.0551
1542.00,0.0554
1541.50,0.0557
1541.00,0.0558
1540.50,0.0556
1540.00,0.0554
1539.50,0.0554
1539.00,0.0555
1538.50,0.0554
1538.00,0.0551
1537.50,0.0549
1537.00,0.0547
1536.50,0.0545
1536.00,0.0543
1535.50,0.0540
1535.00,0.0539
1534.50,0.0538
1534.00,0.0535
1533.50,0.0533
1533.00,0.0532
1532.50,0.0531
1532.00,0.0530
1531.50,0.0529
1531.00,0.0528
1530.50,0.0528
1530.00,0.0527
1529.50,0.0526
1529.00,0.0525
1528.50,0.0525
1528.00,0.0524
1527.50,0.0523
1527.00,0.0523
1526.50,0.0524
1526.00,0.0524
1525.50,0.0524
1525.00,0.0524
1524.50,0.0524
1524.00,0.0524
1523.50,0.0523
1523.00,0.0523
1522.50,0.0524
1522.00,0.0524
1521.50,0.0525
1521.00,0.0525
1520.50,0.0525
1520.00,0.0524
1519.50,0.0523
1519.00,0.0522
1518.50,0.0522
1518.00,0.0522
1517.50,0.0522
1517.00,0.0522
1516.50,0.0522
1516.00,0.0521
1515.50,0.0520
1515.00,0.0519
1514.50,0.0519
1514.00,0.0519
1513.50,0.0518
1513.00,0.0518
1512.50,0.0518
1512.00,0.0517
1511.50,0.0517
1511.00,0.0517
1510.50,0.0517
1510.00,0.0518
1509.50,0.0518
1509.00,0.0518
1508.50,0.0518
1508.00,0.0517
1507.50,0.0515
1507.00,0.0515
1506.50,0.0516
1506.00,0.0518
1505.50,0.0519
1505.00,0.0520
1504.50,0.0520
1504.00,0.0520
1503.50,0.0519
1503.00,0.0519
1502.50,0.0519
1502.00,0.0518
1501.50,0.0517
1501.00,0.0517
1500.50,0.0518
1500.00,0.0519
1499.50,0.0520
1499.00,0.0519
1498.50,0.0518
1498.00,0.0519
1497.50,0.0521
1497.00,0.0523
1496.50,0.0524
1496.00,0.0523
1495.50,0.0524
1495.00,0.0526
1494.50,0.0527
1494.00,0.0528
1493.50,0.0529
1493.00,0.0530
1492.50,0.0530
1492.00,0.0530
1491.50,0.0531
1491.00,0.0532
1490.50,0.0534
1490.00,0.0538
1489.50,0.0543
1489.00,0.0545
1488.50,0.0546
1488.00,0.0547
1487.50,0.0550
1487.00,0.0553
1486.50,0.0555
1486.00,0.0556
1485.50,0.0558
1485.00,0.0559
1484.50,0.0560
1484.00,0.0562
1483.50,0.0563
1483.00,0.0563
1482.50,0.0564
1482.00,0.0565
1481.50,0.0566
1481.00,0.0566
1480.50,0.0567
1480.00,0.0568
1479.50,0.0569
1479.00,0.0569
1478.50,0.0570
1478.00,0.0570
1477.50,0.0570
1477.00,0.0570
1476.50,0.0571
1476.00,0.0572
1475.50,0.0573
1475.00,0.0574
1474.50,0.0575
1474.00,0.0575
1473.50,0.0576
1473.00,0.0579
1472.50,0.0582
1472.00,0.0586
1471.50,0.0590
1471.00,0.0594
1470.50,0.0597
1470.00,0.0600
1469.50,0.0604
1469.00,0.0608
1468.50,0.0613
1468.00,0.0616
1467.50,0.0621
1467.00,0.0625
1466.50,0.0629
1466.00,0.0633
1465.50,0.0637
1465.00,0.0643
1464.50,0.0648
1464.00,0.0653
1463.50,0.0658
1463.00,0.0663
1462.50,0.0669
1462.00,0.0676
1461.50,0.0683
1461.00,0.0690
1460.50,0.0697
1460.00,0.0704
1459.50,0.0711
1459.00,0.0719
1458.50,0.0727
1458.00,0.0734
1457.50,0.0742
1457.00,0.0751
1456.50,0.0761
1456.00,0.0770
1455.50,0.0778
1455.00,0.0785
1454.50,0.0792
1454.00,0.0801
1453.50,0.0810
1453.00,0.0819
1452.50,0.0829
1452.00,0.0839
1451.50,0.0850
1451.00,0.0860
1450.50,0.0870
1450.00,0.0880
1449.50,0.0888
1449.00,0.0896
1448.50,0.0904
1448.00,0.0913
1447.50,0.0921
1447.00,0.0927
1446.50,0.0930
1446.00,0.0932
1445.50,0.0933
1445.00,0.0932
1444.50,0.0930
1444.00,0.0927
1443.50,0.0922
1443.00,0.0917
1442.50,0.0911
1442.00,0.0904
1441.50,0.0896
1441.00,0.0889
1440.50,0.0881
1440.00,0.0873
1439.50,0.0866
1439.00,0.0859
1438.50,0.0853
1438.00,0.0846
1437.50,0.0840
1437.00,0.0834
1436.50,0.0828
1436.00,0.0826
1435.50,0.0825
1435.00,0.0823
1434.50,0.0822
1434.00,0.0821
1433.50,0.0822
1433.00,0.0823
1432.50,0.0824
1432.00,0.0827
1431.50,0.0830
1431.00,0.0835
1430.50,0.0840
1430.00,0.0846
1429.50,0.0855
1429.00,0.0865
1428.50,0.0873
1428.00,0.0883
1427.50,0.0896
1427.00,0.0910
1426.50,0.0925
1426.00,0.0940
1425.50,0.0958
1425.00,0.0977
1424.50,0.0998
1424.00,0.1022
1423.50,0.1050
1423.00,0.1078
1422.50,0.1106
1422.00,0.1135
1421.50,0.1164
1421.00,0.1192
1420.50,0.1220
1420.00,0.1254
1419.50,0.1299
1419.00,0.1347
1418.50,0.1385
1418.00,0.1413
1417.50,0.1440
1417.00,0.1470
1416.50,0.1499
1416.00,0.1525
1415.50,0.1549
1415.00,0.1570
1414.50,0.1588
1414.00,0.1602
1413.50,0.1614
1413.00,0.1623
1412.50,0.1630
1412.00,0.1633
1411.50,0.1634
1411.00,0.1634
1410.50,0.1631
1410.00,0.1626
1409.50,0.1618
1409.00,0.1609
1408.50,0.1599
1408.00,0.1586
1407.50,0.1571
1407.00,0.1556
1406.50,0.1540
1406.00,0.1524
1405.50,0.1507
1405.00,0.1491
1404.50,0.1476
1404.00,0.1462
1403.50,0.1449
1403.00,0.1437
1402.50,0.1425
1402.00,0.1412
1401.50,0.1399
1401.00,0.1384
1400.50,0.1370
1400.00,0.1353
1399.50,0.1333
1399.00,0.1311
1398.50,0.1288
1398.00,0.1266
1397.50,0.1242
1397.00,0.1218
1396.50,0.1194
1396.00,0.1170
1395.50,0.1144
1395.00,0.1116
1394.50,0.1085
1394.00,0.1055
1393.50,0.1026
1393.00,0.1000
1392.50,0.0976
1392.00,0.0953
1391.50,0.0931
1391.00,0.0911
1390.50,0.0893
1390.00,0.0876
1389.50,0.0861
1389.00,0.0848
1388.50,0.0836
1388.00,0.0825
1387.50,0.0813
1387.00,0.0802
1386.50,0.0793
1386.00,0.0785
1385.50,0.0777
1385.00,0.0770
1384.50,0.0764
1384.00,0.0757
1383.50,0.0749
1383.00,0.0742
1382.50,0.0736
1382.00,0.0730
1381.50,0.0724
1381.00,0.0719
1380.50,0.0714
1380.00,0.0710
1379.50,0.0706
1379.00,0.0702
1378.50,0.0699
1378.00,0.0697
1377.50,0.0694
1377.00,0.0692
1376.50,0.0691
1376.00,0.0689
1375.50,0.0688
1375.00,0.0687
1374.50,0.0687
1374.00,0.0687
1373.50,0.0686
1373.00,0.0685
1372.50,0.0684
1372.00,0.0683
1371.50,0.0681
1371.00,0.0679
1370.50,0.0676
1370.00,0.0674
1369.50,0.0671
1369.00,0.0669
1368.50,0.0667
1368.00,0.0664
1367.50,0.0662
1367.00,0.0660
1366.50,0.0659
1366.00,0.0658
1365.50,0.0656
1365.00,0.0655
1364.50,0.0654
1364.00,0.0653
1363.50,0.0652
1363.00,0.0651
1362.50,0.0650
1362.00,0.0650
1361.50,0.0649
1361.00,0.0648
1360.50,0.0647
1360.00,0.0647
1359.50,0.0645
1359.00,0.0644
1358.50,0.0644
1358.00,0.0643
1357.50,0.0643
1357.00,0.0642
1356.50,0.0642
1356.00,0.0642
1355.50,0.0641
1355.00,0.0641
1354.50,0.0641
1354.00,0.0641
1353.50,0.0641
1353.00,0.0641
1352.50,0.0641
1352.00,0.0642
1351.50,0.0642
1351.00,0.0642
1350.50,0.0642
1350.00,0.0643
1349.50,0.0643
1349.00,0.0643
1348.50,0.0643
1348.00,0.0644
1347.50,0.0644
1347.00,0.0644
1346.50,0.0645
1346.00,0.0646
1345.50,0.0646
1345.00,0.0646
1344.50,0.0646
1344.00,0.0647
1343.50,0.0646
1343.00,0.0646
1342.50,0.0647
1342.00,0.0648
1341.50,0.0647
1341.00,0.0647
1340.50,0.0647
1340.00,0.0648
1339.50,0.0648
1339.00,0.0649
1338.50,0.0649
1338.00,0.0650
1337.50,0.0651
1337.00,0.0652
1336.50,0.0653
1336.00,0.0654
1335.50,0.0654
1335.00,0.0655
1334.50,0.0656
1334.00,0.0657
1333.50,0.0658
1333.00,0.0660
1332.50,0.0661
1332.00,0.0663
1331.50,0.0665
1331.00,0.0666
1330.50,0.0669
1330.00,0.0671
1329.50,0.0673
1329.00,0.0676
1328.50,0.0678
1328.00,0.0681
1327.50,0.0684
1327.00,0.0687
1326.50,0.0690
1326.00,0.0693
1325.50,0.0696
1325.00,0.0700
1324.50,0.0703
1324.00,0.0706
1323.50,0.0710
1323.00,0.0713
1322.50,0.0717
1322.00,0.0721
1321.50,0.0725
1321.00,0.0729
1320.50,0.0733
1320.00,0.0738
1319.50,0.0742
1319.00,0.0747
1318.50,0.0751
1318.00,0.0756
1317.50,0.0761
1317.00,0.0765
1316.50,0.0771
1316.00,0.0776
1315.50,0.0781
1315.00,0.0786
1314.50,0.0791
1314.00,0.0797
1313.50,0.0802
1313.00,0.0808
1312.50,0.0814
1312.00,0.0820
1311.50,0.0826
1311.00,0.0832
1310.50,0.0838
1310.00,0.0844
1309.50,0.0850
1309.00,0.0856
1308.50,0.0863
1308.00,0.0870
1307.50,0.0877
1307.00,0.0883
1306.50,0.0890
1306.00,0.0897
1305.50,0.0904
1305.00,0.0912
1304.50,0.0920
1304.00,0.0927
1303.50,0.0935
1303.00,0.0943
1302.50,0.0952
1302.00,0.0960
1301.50,0.0969
1301.00,0.0978
1300.50,0.0988
1300.00,0.0997
1299.50,0.1007
1299.00,0.1018
1298.50,0.1028
1298.00,0.1039
1297.50,0.1051
1297.00,0.1062
1296.50,0.1075
1296.00,0.1088
1295.50,0.1101
1295.00,0.1114
1294.50,0.1128
1294.00,0.1143
1293.50,0.1158
1293.00,0.1174
1292.50,0.1190
1292.00,0.1207
1291.50,0.1224
1291.00,0.1241
1290.50,0.1260
1290.00,0.1279
1289.50,0.1299
1289.00,0.1320
1288.50,0.1341
1288.00,0.1364
1287.50,0.1388
1287.00,0.1412
1286.50,0.1438
1286.00,0.1466
1285.50,0.1494
1285.00,0.1524
1284.50,0.1556
1284.00,0.1590
1283.50,0.1626
1283.00,0.1665
1282.50,0.1706
1282.00,0.1750
1281.50,0.1797
1281.00,0.1847
1280.50,0.1901
1280.00,0.1960
1279.50,0.2024
1279.00,0.2092
1278.50,0.2166
1278.00,0.2247
1277.50,0.2335
1277.00,0.2431
1276.50,0.2536
1276.00,0.2650
1275.50,0.2775
1275.00,0.2913
1274.50,0.3064
1274.00,0.3231
1273.50,0.3413
1273.00,0.3615
1272.50,0.3840
1272.00,0.4090
1271.50,0.4366
1271.00,0.4672
1270.50,0.5007
1270.00,0.5372
1269.50,0.5768
1269.00,0.6190
1268.50,0.6631
1268.00,0.7080
1267.50,0.7527
1267.00,0.7963
1266.50,0.8372
1266.00,0.8745
1265.50,0.9080
1265.00,0.9375
1264.50,0.9627
1264.00,0.9833
1263.50,1.0002
1263.00,1.0140
1262.50,1.0240
1262.00,1.0299
1261.50,1.0326
1261.00,1.0327
1260.50,1.0296
1260.00,1.0233
1259.50,1.0143
1259.00,1.0032
1258.50,0.9892
1258.00,0.9725
1257.50,0.9540
1257.00,0.9343
1256.50,0.9132
1256.00,0.8909
1255.50,0.8683
1255.00,0.8455
1254.50,0.8220
1254.00,0.7973
1253.50,0.7713
1253.00,0.7437
1252.50,0.7137
1252.00,0.6815
1251.50,0.6476
1251.00,0.6127
1250.50,0.5774
1250.00,0.5425
1249.50,0.5089
1249.00,0.4772
1248.50,0.4474
1248.00,0.4199
1247.50,0.3948
1247.00,0.3721
1246.50,0.3517
1246.00,0.3333
1245.50,0.3169
1245.00,0.3022
1244.50,0.2890
1244.00,0.2771
1243.50,0.2665
1243.00,0.2569
1242.50,0.2482
1242.00,0.2404
1241.50,0.2333
1241.00,0.2270
1240.50,0.2213
1240.00,0.2160
1239.50,0.2113
1239.00,0.2071
1238.50,0.2032
1238.00,0.1997
1237.50,0.1966
1237.00,0.1938
1236.50,0.1913
1236.00,0.1890
1235.50,0.1870
1235.00,0.1853
1234.50,0.1837
1234.00,0.1824
1233.50,0.1813
1233.00,0.1804
1232.50,0.1797
1232.00,0.1791
1231.50,0.1787
1231.00,0.1785
1230.50,0.1785
1230.00,0.1786
1229.50,0.1788
1229.00,0.1792
1228.50,0.1797
1228.00,0.1803
1227.50,0.1811
1227.00,0.1820
1226.50,0.1830
1226.00,0.1841
1225.50,0.1853
1225.00,0.1867
1224.50,0.1882
1224.00,0.1897
1223.50,0.1914
1223.00,0.1932
1222.50,0.1951
1222.00,0.1970
1221.50,0.1991
1221.00,0.2012
1220.50,0.2035
1220.00,0.2058
1219.50,0.2082
1219.00,0.2107
1218.50,0.2132
1218.00,0.2158
1217.50,0.2184
1217.00,0.2212
1216.50,0.2240
1216.00,0.2268
1215.50,0.2297
1215.00,0.2326
1214.50,0.2355
1214.00,0.2385
1213.50,0.2415
1213.00,0.2445
1212.50,0.2476
1212.00,0.2506
1211.50,0.2537
1211.00,0.2568
1210.50,0.2598
1210.00,0.2628
1209.50,0.2658
1209.00,0.2689
1208.50,0.2719
1208.00,0.2749
1207.50,0.2778
1207.00,0.2808
1206.50,0.2837
1206.00,0.2865
1205.50,0.2893
1205.00,0.2921
1204.50,0.2949
1204.00,0.2976
1203.50,0.3002
1203.00,0.3028
1202.50,0.3054
1202.00,0.3078
1201.50,0.3103
1201.00,0.3127
1200.50,0.3151
1200.00,0.3173
1199.50,0.3195
1199.00,0.3217
1198.50,0.3238
1198.00,0.3258
1197.50,0.3277
1197.00,0.3297
1196.50,0.3316
1196.00,0.3334
1195.50,0.3351
1195.00,0.3368
1194.50,0.3384
1194.00,0.3400
1193.50,0.3415
1193.00,0.3430
1192.50,0.3444
1192.00,0.3458
1191.50,0.3471
1191.00,0.3484
1190.50,0.3497
1190.00,0.3509
1189.50,0.3521
1189.00,0.3533
1188.50,0.3545
1188.00,0.3558
1187.50,0.3571
1187.00,0.3584
1186.50,0.3595
1186.00,0.3604
1185.50,0.3611
1185.00,0.3618
1184.50,0.3625
1184.00,0.3632
1183.50,0.3639
1183.00,0.3647
1182.50,0.3655
1182.00,0.3663
1181.50,0.3671
1181.00,0.3680
1180.50,0.3688
1180.00,0.3697
1179.50,0.3706
1179.00,0.3716
1178.50,0.3726
1178.00,0.3735
1177.50,0.3745
1177.00,0.3756
1176.50,0.3767
1176.00,0.3778
1175.50,0.3788
1175.00,0.3800
1174.50,0.3811
1174.00,0.3822
1173.50,0.3833
1173.00,0.3845
1172.50,0.3856
1172.00,0.3867
1171.50,0.3878
1171.00,0.3889
1170.50,0.3900
1170.00,0.3911
1169.50,0.3922
1169.00,0.3933
1168.50,0.3945
1168.00,0.3956
1167.50,0.3969
1167.00,0.3982
1166.50,0.3995
1166.00,0.4008
1165.50,0.4022
1165.00,0.4036
1164.50,0.4051
1164.00,0.4065
1163.50,0.4081
1163.00,0.4097
1162.50,0.4114
1162.00,0.4130
1161.50,0.4147
1161.00,0.4166
1160.50,0.4184
1160.00,0.4203
1159.50,0.4223
1159.00,0.4243
1158.50,0.4264
1158.00,0.4285
1157.50,0.4306
1157.00,0.4328
1156.50,0.4351
1156.00,0.4373
1155.50,0.4396
1155.00,0.4421
1154.50,0.4446
1154.00,0.4472
1153.50,0.4499
1153.00,0.4527
1152.50,0.4556
1152.00,0.4585
1151.50,0.4615
1151.00,0.4646
1150.50,0.4679
1150.00,0.4712
1149.50,0.4747
1149.00,0.4783
1148.50,0.4820
1148.00,0.4857
1147.50,0.4895
1147.00,0.4936
1146.50,0.4977
1146.00,0.5019
1145.50,0.5062
1145.00,0.5108
1144.50,0.5154
1144.00,0.5201
1143.50,0.5249
1143.00,0.5299
1142.50,0.5350
1142.00,0.5401
1141.50,0.5453
1141.00,0.5508
1140.50,0.5564
1140.00,0.5619
1139.50,0.5676
1139.00,0.5734
1138.50,0.5793
1138.00,0.5852
1137.50,0.5912
1137.00,0.5974
1136.50,0.6036
1136.00,0.6099
1135.50,0.6163
1135.00,0.6229
1134.50,0.6297
1134.00,0.6364
1133.50,0.6433
1133.00,0.6504
1132.50,0.6577
1132.00,0.6650
1131.50,0.6724
1131.00,0.6801
1130.50,0.6879
1130.00,0.6956
1129.50,0.7036
1129.00,0.7118
1128.50,0.7201
1128.00,0.7283
1127.50,0.7367
1127.00,0.7453
1126.50,0.7540
1126.00,0.7626
1125.50,0.7713
1125.00,0.7802
1124.50,0.7890
1124.00,0.7977
1123.50,0.8066
1123.00,0.8157
1122.50,0.8246
1122.00,0.8333
1121.50,0.8421
1121.00,0.8511
1120.50,0.8601
1120.00,0.8687
1119.50,0.8773
1119.00,0.8861
1118.50,0.8947
1118.00,0.9029
1117.50,0.9113
1117.00,0.9198
1116.50,0.9281
1116.00,0.9359
1115.50,0.9437
1115.00,0.9516
1114.50,0.9593
1114.00,0.9664
1113.50,0.9735
1113.00,0.9807
1112.50,0.9877
1112.00,0.9942
1111.50,1.0007
1111.00,1.0074
1110.50,1.0138
1110.00,1.0197
1109.50,1.0256
1109.00,1.0316
1108.50,1.0374
1108.00,1.0426
1107.50,1.0479
1107.00,1.0533
1106.50,1.0585
1106.00,1.0631
1105.50,1.0676
1105.00,1.0725
1104.50,1.0770
1104.00,1.0810
1103.50,1.0849
1103.00,1.0891
1102.50,1.0931
1102.00,1.0965
1101.50,1.0999
1101.00,1.1036
1100.50,1.1071
1100.00,1.1101
1099.50,1.1130
1099.00,1.1163
1098.50,1.1193
1098.00,1.1217
1097.50,1.1242
1097.00,1.1271
1096.50,1.1298
1096.00,1.1318
1095.50,1.1338
1095.00,1.1363
1094.50,1.1386
1094.00,1.1403
1093.50,1.1420
1093.00,1.1442
1092.50,1.1460
1092.00,1.1473
1091.50,1.1487
1091.00,1.1504
1090.50,1.1518
1090.00,1.1526
1089.50,1.1535
1089.00,1.1547
1088.50,1.1557
1088.00,1.1561
1087.50,1.1565
1087.00,1.1572
1086.50,1.1577
1086.00,1.1575
1085.50,1.1574
1085.00,1.1577
1084.50,1.1577
1084.00,1.1572
1083.50,1.1567
1083.00,1.1566
1082.50,1.1561
1082.00,1.1550
1081.50,1.1539
1081.00,1.1533
1080.50,1.1524
1080.00,1.1509
1079.50,1.1494
1079.00,1.1483
1078.50,1.1470
1078.00,1.1451
1077.50,1.1433
1077.00,1.1419
1076.50,1.1405
1076.00,1.1385
1075.50,1.1365
1075.00,1.1347
1074.50,1.1327
1074.00,1.1301
1073.50,1.1279
1073.00,1.1261
1072.50,1.1242
1072.00,1.1218
1071.50,1.1194
1071.00,1.1174
1070.50,1.1153
1070.00,1.1128
1069.50,1.1104
1069.00,1.1085
1068.50,1.1066
1068.00,1.1042
1067.50,1.1021
1067.00,1.1004
1066.50,1.0986
1066.00,1.0962
1065.50,1.0939
1065.00,1.0920
1064.50,1.0901
1064.00,1.0879
1063.50,1.0859
1063.00,1.0843
1062.50,1.0826
1062.00,1.0806
1061.50,1.0786
1061.00,1.0770
1060.50,1.0752
1060.00,1.0730
1059.50,1.0710
1059.00,1.0694
1058.50,1.0677
1058.00,1.0656
1057.50,1.0636
1057.00,1.0619
1056.50,1.0601
1056.00,1.0579
1055.50,1.0557
1055.00,1.0540
1054.50,1.0522
1054.00,1.0501
1053.50,1.0483
1053.00,1.0469
1052.50,1.0455
1052.00,1.0437
1051.50,1.0419
1051.00,1.0405
1050.50,1.0389
1050.00,1.0369
1049.50,1.0351
1049.00,1.0338
1048.50,1.0325
1048.00,1.0307
1047.50,1.0290
1047.00,1.0276
1046.50,1.0261
1046.00,1.0243
1045.50,1.0225
1045.00,1.0212
1044.50,1.0199
1044.00,1.0184
1043.50,1.0172
1043.00,1.0163
1042.50,1.0153
1042.00,1.0140
1041.50,1.0129
1041.00,1.0123
1040.50,1.0118
1040.00,1.0112
1039.50,1.0107
1039.00,1.0106
1038.50,1.0105
1038.00,1.0103
1037.50,1.0101
1037.00,1.0104
1036.50,1.0108
1036.00,1.0108
1035.50,1.0110
1035.00,1.0114
1034.50,1.0119
1034.00,1.0124
1033.50,1.0131
1033.00,1.0141
1032.50,1.0150
1032.00,1.0155
1031.50,1.0161
1031.00,1.0171
1030.50,1.0182
1030.00,1.0191
1029.50,1.0200
1029.00,1.0212
1028.50,1.0223
1028.00,1.0231
1027.50,1.0239
1027.00,1.0248
1026.50,1.0257
1026.00,1.0264
1025.50,1.0270
1025.00,1.0278
1024.50,1.0283
1024.00,1.0284
1023.50,1.0285
1023.00,1.0287
1022.50,1.0287
1022.00,1.0283
1021.50,1.0277
1021.00,1.0273
1020.50,1.0265
1020.00,1.0250
1019.50,1.0231
1019.00,1.0212
1018.50,1.0188
1018.00,1.0157
1017.50,1.0122
1017.00,1.0084
1016.50,1.0040
1016.00,0.9987
1015.50,0.9927
1015.00,0.9863
1014.50,0.9791
1014.00,0.9708
1013.50,0.9618
1013.00,0.9523
1012.50,0.9419
1012.00,0.9304
1011.50,0.9181
1011.00,0.9054
1010.50,0.8919
1010.00,0.8776
1009.50,0.8626
1009.00,0.8473
1008.50,0.8314
1008.00,0.8150
1007.50,0.7982
1007.00,0.7812
1006.50,0.7639
1006.00,0.7463
1005.50,0.7286
1005.00,0.7109
1004.50,0.6933
1004.00,0.6756
1003.50,0.6580
1003.00,0.6408
1002.50,0.6237
1002.00,0.6069
1001.50,0.5904
1001.00,0.5744
1000.50,0.5588
1000.00,0.5436
999.50,0.5288
999.00,0.5145
998.50,0.5006
998.00,0.4872
997.50,0.4742
997.00,0.4617
996.50,0.4497
996.00,0.4381
995.50,0.4269
995.00,0.4161
994.50,0.4057
994.00,0.3957
993.50,0.3860
993.00,0.3766
992.50,0.3676
992.00,0.3589
991.50,0.3506
991.00,0.3426
990.50,0.3348
990.00,0.3273
989.50,0.3201
989.00,0.3132
988.50,0.3065
988.00,0.3000
987.50,0.2938
987.00,0.2878
986.50,0.2820
986.00,0.2764
985.50,0.2710
985.00,0.2658
984.50,0.2608
984.00,0.2559
983.50,0.2513
983.00,0.2468
982.50,0.2424
982.00,0.2382
981.50,0.2341
981.00,0.2302
980.50,0.2264
980.00,0.2228
979.50,0.2192
979.00,0.2158
978.50,0.2125
978.00,0.2093
977.50,0.2062
977.00,0.2032
976.50,0.2004
976.00,0.1977
975.50,0.1950
975.00,0.1925
974.50,0.1900
974.00,0.1876
973.50,0.1852
973.00,0.1830
972.50,0.1809
972.00,0.1788
971.50,0.1769
971.00,0.1750
970.50,0.1731
970.00,0.1714
969.50,0.1696
969.00,0.1680
968.50,0.1665
968.00,0.1650
967.50,0.1636
967.00,0.1623
966.50,0.1611
966.00,0.1599
965.50,0.1589
965.00,0.1579
964.50,0.1570
964.00,0.1561
963.50,0.1553
963.00,0.1545
962.50,0.1538
962.00,0.1532
961.50,0.1526
961.00,0.1520
960.50,0.1514
960.00,0.1508
959.50,0.1502
959.00,0.1496
958.50,0.1490
958.00,0.1483
957.50,0.1476
957.00,0.1469
956.50,0.1463
956.00,0.1455
955.50,0.1446
955.00,0.1436
954.50,0.1425
954.00,0.1413
953.50,0.1400
953.00,0.1387
952.50,0.1372
952.00,0.1358
951.50,0.1343
951.00,0.1329
950.50,0.1315
950.00,0.1302
949.50,0.1290
949.00,0.1279
948.50,0.1269
948.00,0.1260
947.50,0.1251
947.00,0.1243
946.50,0.1236
946.00,0.1229
945.50,0.1222
945.00,0.1217
944.50,0.1212
944.00,0.1207
943.50,0.1203
943.00,0.1199
942.50,0.1195
942.00,0.1193
941.50,0.1190
941.00,0.1189
940.50,0.1187
940.00,0.1186
939.50,0.1186
939.00,0.1185
938.50,0.1186
938.00,0.1186
937.50,0.1188
937.00,0.1189
936.50,0.1192
936.00,0.1194
935.50,0.1198
935.00,0.1202
934.50,0.1207
934.00,0.1212
933.50,0.1218
933.00,0.1224
932.50,0.1232
932.00,0.1240
931.50,0.1249
931.00,0.1258
930.50,0.1268
930.00,0.1278
929.50,0.1288
929.00,0.1298
928.50,0.1309
928.00,0.1320
927.50,0.1331
927.00,0.1342
926.50,0.1352
926.00,0.1363
925.50,0.1374
925.00,0.1386
924.50,0.1398
924.00,0.1411
923.50,0.1425
923.00,0.1441
922.50,0.1458
922.00,0.1477
921.50,0.1498
921.00,0.1521
920.50,0.1545
920.00,0.1571
919.50,0.1598
919.00,0.1627
918.50,0.1655
918.00,0.1684
917.50,0.1712
917.00,0.1739
916.50,0.1765
916.00,0.1789
915.50,0.1812
915.00,0.1833
914.50,0.1852
914.00,0.1869
913.50,0.1884
913.00,0.1896
912.50,0.1906
912.00,0.1912
911.50,0.1916
911.00,0.1918
910.50,0.1917
910.00,0.1915
909.50,0.1910
909.00,0.1905
908.50,0.1899
908.00,0.1893
907.50,0.1887
907.00,0.1881
906.50,0.1876
906.00,0.1873
905.50,0.1871
905.00,0.1871
904.50,0.1874
904.00,0.1878
903.50,0.1885
903.00,0.1894
902.50,0.1906
902.00,0.1920
901.50,0.1936
901.00,0.1955
900.50,0.1976
900.00,0.1999
899.50,0.2023
899.00,0.2049
898.50,0.2077
898.00,0.2106
897.50,0.2136
897.00,0.2166
896.50,0.2198
896.00,0.2230
895.50,0.2263
895.00,0.2297
894.50,0.2331
894.00,0.2366
893.50,0.2401
893.00,0.2437
892.50,0.2474
892.00,0.2511
891.50,0.2549
891.00,0.2589
890.50,0.2630
890.00,0.2671
889.50,0.2715
889.00,0.2761
888.50,0.2810
888.00,0.2861
887.50,0.2915
887.00,0.2973
886.50,0.3033
886.00,0.3097
885.50,0.3164
885.00,0.3234
884.50,0.3306
884.00,0.3381
883.50,0.3459
883.00,0.3539
882.50,0.3622
882.00,0.3707
881.50,0.3794
881.00,0.3883
880.50,0.3974
880.00,0.4067
879.50,0.4163
879.00,0.4261
878.50,0.4362
878.00,0.4465
877.50,0.4571
877.00,0.4680
876.50,0.4792
876.00,0.4906
875.50,0.5022
875.00,0.5140
874.50,0.5259
874.00,0.5378
873.50,0.5497
873.00,0.5616
872.50,0.5732
872.00,0.5844
871.50,0.5950
871.00,0.6051
870.50,0.6145
870.00,0.6230
869.50,0.6307
869.00,0.6374
868.50,0.6430
868.00,0.6475
867.50,0.6509
867.00,0.6532
866.50,0.6545
866.00,0.6547
865.50,0.6541
865.00,0.6529
864.50,0.6510
864.00,0.6483
863.50,0.6451
863.00,0.6416
862.50,0.6379
862.00,0.6340
861.50,0.6301
861.00,0.6263
860.50,0.6227
860.00,0.6192
859.50,0.6160
859.00,0.6135
858.50,0.6116
858.00,0.6103
857.50,0.6095
857.00,0.6096
856.50,0.6105
856.00,0.6121
855.50,0.6146
855.00,0.6180
854.50,0.6223
854.00,0.6271
853.50,0.6327
853.00,0.6390
852.50,0.6458
852.00,0.6529
851.50,0.6602
851.00,0.6678
850.50,0.6755
850.00,0.6830
849.50,0.6903
849.00,0.6973
848.50,0.7038
848.00,0.7095
847.50,0.7144
847.00,0.7186
846.50,0.7218
846.00,0.7240
845.50,0.7250
845.00,0.7252
844.50,0.7243
844.00,0.7223
843.50,0.7193
843.00,0.7156
842.50,0.7110
842.00,0.7057
841.50,0.6997
841.00,0.6934
840.50,0.6867
840.00,0.6797
839.50,0.6727
839.00,0.6660
838.50,0.6596
838.00,0.6535
837.50,0.6476
837.00,0.6424
836.50,0.6378
836.00,0.6339
835.50,0.6308
835.00,0.6287
834.50,0.6275
834.00,0.6271
833.50,0.6275
833.00,0.6289
832.50,0.6313
832.00,0.6346
831.50,0.6389
831.00,0.6443
830.50,0.6507
830.00,0.6580
829.50,0.6664
829.00,0.6759
828.50,0.6867
828.00,0.6982
827.50,0.7105
827.00,0.7237
826.50,0.7377
826.00,0.7520
825.50,0.7666
825.00,0.7815
824.50,0.7964
824.00,0.8106
823.50,0.8241
823.00,0.8370
822.50,0.8488
822.00,0.8594
821.50,0.8688
821.00,0.8776
820.50,0.8854
820.00,0.8922
819.50,0.8980
819.00,0.9034
818.50,0.9082
818.00,0.9124
817.50,0.9162
817.00,0.9200
816.50,0.9240
816.00,0.9279
815.50,0.9321
815.00,0.9369
814.50,0.9420
814.00,0.9471
813.50,0.9524
813.00,0.9582
812.50,0.9644
812.00,0.9707
811.50,0.9771
811.00,0.9840
810.50,0.9911
810.00,0.9981
809.50,1.0052
809.00,1.0125
808.50,1.0198
808.00,1.0264
807.50,1.0328
807.00,1.0393
806.50,1.0457
806.00,1.0516
805.50,1.0573
805.00,1.0629
804.50,1.0680
804.00,1.0723
803.50,1.0760
803.00,1.0795
802.50,1.0827
802.00,1.0852
801.50,1.0869
801.00,1.0882
800.50,1.0887
800.00,1.0880
799.50,1.0863
799.00,1.0844
798.50,1.0818
798.00,1.0781
797.50,1.0735
797.00,1.0683
796.50,1.0623
796.00,1.0552
795.50,1.0471
795.00,1.0385
794.50,1.0289
794.00,1.0181
793.50,1.0062
793.00,0.9938
792.50,0.9806
792.00,0.9660
791.50,0.9501
791.00,0.9334
790.50,0.9157
790.00,0.8969
789.50,0.8773
789.00,0.8571
788.50,0.8361
788.00,0.8142
787.50,0.7918
787.00,0.7691
786.50,0.7460
786.00,0.7227
785.50,0.6994
785.00,0.6763
784.50,0.6536
784.00,0.6312
783.50,0.6094
783.00,0.5883
782.50,0.5679
782.00,0.5484
781.50,0.5296
781.00,0.5117
780.50,0.4947
780.00,0.4784
779.50,0.4629
779.00,0.4484
778.50,0.4348
778.00,0.4220
777.50,0.4100
777.00,0.3989
776.50,0.3887
776.00,0.3794
775.50,0.3708
775.00,0.3630
774.50,0.3560
774.00,0.3496
773.50,0.3438
773.00,0.3387
772.50,0.3342
772.00,0.3302
771.50,0.3266
771.00,0.3235
770.50,0.3208
770.00,0.3184
769.50,0.3165
769.00,0.3150
768.50,0.3138
768.00,0.3130
767.50,0.3125
767.00,0.3125
766.50,0.3129
766.00,0.3137
765.50,0.3150
765.00,0.3167
764.50,0.3190
764.00,0.3217
763.50,0.3250
763.00,0.3288
762.50,0.3331
762.00,0.3379
761.50,0.3431
761.00,0.3484
760.50,0.3539
760.00,0.3591
759.50,0.3639
759.00,0.3681
758.50,0.3711
758.00,0.3729
757.50,0.3730
757.00,0.3714
756.50,0.3679
756.00,0.3625
755.50,0.3555
755.00,0.3470
754.50,0.3374
754.00,0.3269
753.50,0.3160
753.00,0.3049
752.50,0.2939
752.00,0.2831
751.50,0.2728
751.00,0.2631
750.50,0.2540
750.00,0.2456
749.50,0.2380
749.00,0.2310
748.50,0.2247
748.00,0.2189
747.50,0.2136
747.00,0.2089
746.50,0.2047
746.00,0.2009
745.50,0.1974
745.00,0.1943
744.50,0.1914
744.00,0.1888
743.50,0.1863
743.00,0.1841
742.50,0.1821
742.00,0.1801
741.50,0.1783
741.00,0.1765
740.50,0.1748
740.00,0.1732
739.50,0.1717
739.00,0.1702
738.50,0.1688
738.00,0.1675
737.50,0.1663
737.00,0.1651
736.50,0.1640
736.00,0.1629
735.50,0.1619
735.00,0.1610
734.50,0.1601
734.00,0.1593
733.50,0.1587
733.00,0.1581
732.50,0.1575
732.00,0.1571
731.50,0.1566
731.00,0.1562
730.50,0.1558
730.00,0.1554
729.50,0.1551
729.00,0.1549
728.50,0.1547
728.00,0.1545
727.50,0.1544
727.00,0.1543
726.50,0.1542
726.00,0.1541
725.50,0.1541
725.00,0.1542
724.50,0.1542
724.00,0.1543
723.50,0.1545
723.00,0.1547
722.50,0.1549
722.00,0.1552
721.50,0.1556
721.00,0.1560
720.50,0.1565
720.00,0.1570
719.50,0.1577
719.00,0.1585
718.50,0.1594
718.00,0.1603
717.50,0.1614
717.00,0.1627
716.50,0.1642
716.00,0.1659
715.50,0.1678
715.00,0.1699
714.50,0.1722
714.00,0.1749
713.50,0.1779
713.00,0.1811
712.50,0.1847
712.00,0.1884
711.50,0.1925
711.00,0.1967
710.50,0.2011
710.00,0.2055
709.50,0.2099
709.00,0.2142
708.50,0.2182
708.00,0.2220
707.50,0.2255
707.00,0.2286
706.50,0.2313
706.00,0.2335
705.50,0.2353
705.00,0.2367
704.50,0.2378
704.00,0.2386
703.50,0.2391
703.00,0.2394
702.50,0.2394
702.00,0.2392
701.50,0.2389
701.00,0.2385
700.50,0.2381
700.00,0.2376
699.50,0.2371
699.00,0.2366
698.50,0.2361
698.00,0.2357
697.50,0.2354
697.00,0.2351
696.50,0.2349
696.00,0.2348
695.50,0.2348
695.00,0.2348
694.50,0.2349
694.00,0.2351
693.50,0.2354
693.00,0.2357
692.50,0.2361
692.00,0.2363
691.50,0.2365
691.00,0.2366
690.50,0.2366
690.00,0.2364
689.50,0.2361
689.00,0.2356
688.50,0.2348
688.00,0.2338
687.50,0.2324
687.00,0.2308
686.50,0.2290
686.00,0.2268
685.50,0.2243
685.00,0.2216
684.50,0.2188
684.00,0.2158
683.50,0.2128
683.00,0.2098
682.50,0.2068
682.00,0.2038
681.50,0.2009
681.00,0.1982
680.50,0.1957
680.00,0.1932
679.50,0.1909
679.00,0.1887
678.50,0.1867
678.00,0.1848
677.50,0.1830
677.00,0.1814
676.50,0.1800
676.00,0.1786
675.50,0.1773
675.00,0.1761
674.50,0.1750
674.00,0.1740
673.50,0.1732
673.00,0.1724
672.50,0.1717
672.00,0.1712
671.50,0.1706
671.00,0.1702
670.50,0.1699
670.00,0.1697
669.50,0.1695
669.00,0.1695
668.50,0.1696
668.00,0.1700
667.50,0.1706
667.00,0.1711
666.50,0.1713
666.00,0.1716
665.50,0.1721
665.00,0.1729
664.50,0.1738
664.00,0.1749
663.50,0.1760
663.00,0.1773
662.50,0.1785
662.00,0.1795
661.50,0.1803
661.00,0.1805
660.50,0.1798
660.00,0.1779
659.50,0.1745
659.00,0.1694
658.50,0.1630
658.00,0.1557
657.50,0.1480
657.00,0.1407
656.50,0.1341
656.00,0.1282
655.50,0.1233
655.00,0.1193
654.50,0.1160
654.00,0.1132
653.50,0.1109
653.00,0.1090
652.50,0.1074
652.00,0.1061
651.50,0.1049
651.00,0.1040
650.50,0.1033
650.00,0.1027
649.50,0.1021
649.00,0.1016
648.50,0.1013
648.00,0.1010
647.50,0.1007
647.00,0.1006
646.50,0.1005
646.00,0.1004
645.50,0.1004
645.00,0.1005
644.50,0.1006
644.00,0.1007
643.50,0.1008
643.00,0.1010
642.50,0.1013
642.00,0.1015
641.50,0.1017
641.00,0.1020
640.50,0.1023
640.00,0.1026
639.50,0.1030
639.00,0.1034
638.50,0.1038
638.00,0.1041
637.50,0.1045
637.00,0.1049
636.50,0.1053
636.00,0.1056
635.50,0.1059
635.00,0.1062
634.50,0.1065
634.00,0.1068
633.50,0.1070
633.00,0.1073
632.50,0.1075
632.00,0.1077
631.50,0.1079
631.00,0.1081
630.50,0.1083
630.00,0.1084
629.50,0.1085
629.00,0.1085
628.50,0.1085
628.00,0.1085
627.50,0.1085
627.00,0.1085
626.50,0.1085
626.00,0.1085
625.50,0.1084
625.00,0.1084
624.50,0.1084
624.00,0.1083
623.50,0.1081
623.00,0.1080
622.50,0.1079
622.00,0.1078
621.50,0.1077
621.00,0.1075
620.50,0.1074
620.00,0.1073
619.50,0.1071
619.00,0.1070
618.50,0.1069
618.00,0.1068
617.50,0.1068
617.00,0.1067
616.50,0.1067
616.00,0.1068
615.50,0.1069
615.00,0.1069
614.50,0.1070
614.00,0.1070
613.50,0.1069
613.00,0.1069
612.50,0.1070
612.00,0.1071
611.50,0.1072
611.00,0.1074
610.50,0.1077
610.00,0.1082
609.50,0.1087
609.00,0.1094
608.50,0.1103
608.00,0.1113
607.50,0.1125
607.00,0.1140
606.50,0.1157
606.00,0.1176
605.50,0.1198
605.00,0.1222
604.50,0.1248
604.00,0.1276
603.50,0.1303
603.00,0.1328
602.50,0.1352
602.00,0.1371
601.50,0.1388
601.00,0.1401
600.50,0.1408
600.00,0.1410
