Created as New Dataset,Sample 011 By USER Date 3 9 2009
cm-1,A
4000.00,0.0329
3999.50,0.0329
3999.00,0.0329
3998.50,0.0329
3998.00,0.0329
3997.50,0.0329
3997.00,0.0329
3996.50,0.0329
3996.00,0.0329
3995.50,0.0329
3995.00,0.0329
3994.50,0.0329
3994.00,0.0328
3993.50,0.0328
3993.00,0.0328
3992.50,0.0328
3992.00,0.0328
3991.50,0.0328
3991.00,0.0328
3990.50,0.0328
3990.00,0.0328
3989.50,0.0328
3989.00,0.0328
3988.50,0.0328
3988.00,0.0328
3987.50,0.0328
3987.00,0.0328
3986.50,0.0327
3986.00,0.0327
3985.50,0.0327
3985.00,0.0327
3984.50,0.0327
3984.00,0.0327
3983.50,0.0327
3983.00,0.0327
3982.50,0.0327
3982.00,0.0327
3981.50,0.0327
3981.00,0.0327
3980.50,0.0327
3980.00,0.0327
3979.50,0.0327
3979.00,0.0327
3978.50,0.0326
3978.00,0.0326
3977.50,0.0326
3977.00,0.0326
3976.50,0.0326
3976.00,0.0326
3975.50,0.0326
3975.00,0.0326
3974.50,0.0326
3974.00,0.0326
3973.50,0.0326
3973.00,0.0326
3972.50,0.0326
3972.00,0.0326
3971.50,0.0326
3971.00,0.0326
3970.50,0.0326
3970.00,0.0326
3969.50,0.0326
3969.00,0.0325
3968.50,0.0325
3968.00,0.0325
3967.50,0.0325
3967.00,0.0325
3966.50,0.0325
3966.00,0.0325
3965.50,0.0325
3965.00,0.0325
3964.50,0.0325
3964.00,0.0325
3963.50,0.0324
3963.00,0.0324
3962.50,0.0324
3962.00,0.0324
3961.50,0.0324
3961.00,0.0324
3960.50,0.0325
3960.00,0.0325
3959.50,0.0325
3959.00,0.0325
3958.50,0.0325
3958.00,0.0325
3957.50,0.0325
3957.00,0.0325
3956.50,0.0325
3956.00,0.0324
3955.50,0.0324
3955.00,0.0324
3954.50,0.0324
3954.00,0.0324
3953.50,0.0325
3953.00,0.0325
3952.50,0.0325
3952.00,0.0324
3951.50,0.0324
3951.00,0.0325
3950.50,0.0325
3950.00,0.0324
3949.50,0.0324
3949.00,0.0323
3948.50,0.0323
3948.00,0.0322
3947.50,0.0322
3947.00,0.0322
3946.50,0.0322
3946.00,0.0323
3945.50,0.0323
3945.00,0.0324
3944.50,0.0324
3944.00,0.0324
3943.50,0.0324
3943.00,0.0324
3942.50,0.0324
3942.00,0.0324
3941.50,0.0324
3941.00,0.0324
3940.50,0.0324
3940.00,0.0324
3939.50,0.0324
3939.00,0.0324
3938.50,0.0324
3938.00,0.0323
3937.50,0.0323
3937.00,0.0323
3936.50,0.0323
3936.00,0.0323
3935.50,0.0323
3935.00,0.0323
3934.50,0.0322
3934.00,0.0322
3933.50,0.0321
3933.00,0.0320
3932.50,0.0320
3932.00,0.0320
3931.50,0.0321
3931.00,0.0322
3930.50,0.0323
3930.00,0.0324
3929.50,0.0324
3929.00,0.0324
3928.50,0.0323
3928.00,0.0323
3927.50,0.0323
3927.00,0.0323
3926.50,0.0324
3926.00,0.0325
3925.50,0.0325
3925.00,0.0325
3924.50,0.0325
3924.00,0.0325
3923.50,0.0324
3923.00,0.0323
3922.50,0.0323
3922.00,0.0323
3921.50,0.0322
3921.00,0.0322
3920.50,0.0322
3920.00,0.0322
3919.50,0.0322
3919.00,0.0321
3918.50,0.0320
3918.00,0.0320
3917.50,0.0320
3917.00,0.0320
3916.50,0.0321
3916.00,0.0322
3915.50,0.0323
3915.00,0.0323
3914.50,0.0323
3914.00,0.0323
3913.50,0.0323
3913.00,0.0323
3912.50,0.0323
3912.00,0.0323
3911.50,0.0324
3911.00,0.0324
3910.50,0.0323
3910.00,0.0324
3909.50,0.0324
3909.00,0.0324
3908.50,0.0323
3908.00,0.0323
3907.50,0.0323
3907.00,0.0324
3906.50,0.0325
3906.00,0.0326
3905.50,0.0326
3905.00,0.0326
3904.50,0.0325
3904.00,0.0323
3903.50,0.0321
3903.00,0.0320
3902.50,0.0319
3902.00,0.0319
3901.50,0.0318
3901.00,0.0319
3900.50,0.0321
3900.00,0.0323
3899.50,0.0324
3899.00,0.0325
3898.50,0.0326
3898.00,0.0326
3897.50,0.0326
3897.00,0.0325
3896.50,0.0324
3896.00,0.0324
3895.50,0.0324
3895.00,0.0324
3894.50,0.0325
3894.00,0.0325
3893.50,0.0326
3893.00,0.0326
3892.50,0.0327
3892.00,0.0328
3891.50,0.0328
3891.00,0.0328
3890.50,0.0327
3890.00,0.0326
3889.50,0.0325
3889.00,0.0324
3888.50,0.0324
3888.00,0.0323
3887.50,0.0323
3887.00,0.0322
3886.50,0.0322
3886.00,0.0322
3885.50,0.0322
3885.00,0.0323
3884.50,0.0325
3884.00,0.0325
3883.50,0.0326
3883.00,0.0325
3882.50,0.0325
3882.00,0.0325
3881.50,0.0326
3881.00,0.0326
3880.50,0.0326
3880.00,0.0325
3879.50,0.0325
3879.00,0.0325
3878.50,0.0325
3878.00,0.0325
3877.50,0.0325
3877.00,0.0325
3876.50,0.0325
3876.00,0.0325
3875.50,0.0326
3875.00,0.0327
3874.50,0.0327
3874.00,0.0327
3873.50,0.0327
3873.00,0.0327
3872.50,0.0327
3872.00,0.0327
3871.50,0.0327
3871.00,0.0326
3870.50,0.0326
3870.00,0.0326
3869.50,0.0326
3869.00,0.0326
3868.50,0.0326
3868.00,0.0327
3867.50,0.0327
3867.00,0.0327
3866.50,0.0327
3866.00,0.0328
3865.50,0.0329
3865.00,0.0329
3864.50,0.0329
3864.00,0.0328
3863.50,0.0329
3863.00,0.0329
3862.50,0.0329
3862.00,0.0329
3861.50,0.0329
3861.00,0.0328
3860.50,0.0328
3860.00,0.0327
3859.50,0.0327
3859.00,0.0327
3858.50,0.0327
3858.00,0.0328
3857.50,0.0330
3857.00,0.0332
3856.50,0.0334
3856.00,0.0336
3855.50,0.0339
3855.00,0.0342
3854.50,0.0343
3854.00,0.0342
3853.50,0.0340
3853.00,0.0339
3852.50,0.0337
3852.00,0.0336
3851.50,0.0334
3851.00,0.0334
3850.50,0.0334
3850.00,0.0334
3849.50,0.0334
3849.00,0.0333
3848.50,0.0333
3848.00,0.0333
3847.50,0.0334
3847.00,0.0334
3846.50,0.0335
3846.00,0.0335
3845.50,0.0336
3845.00,0.0337
3844.50,0.0338
3844.00,0.0338
3843.50,0.0338
3843.00,0.0338
3842.50,0.0338
3842.00,0.0338
3841.50,0.0339
3841.00,0.0339
3840.50,0.0340
3840.00,0.0340
3839.50,0.0341
3839.00,0.0342
3838.50,0.0343
3838.00,0.0344
3837.50,0.0344
3837.00,0.0345
3836.50,0.0345
3836.00,0.0346
3835.50,0.0346
3835.00,0.0346
3834.50,0.0346
3834.00,0.0346
3833.50,0.0346
3833.00,0.0346
3832.50,0.0347
3832.00,0.0346
3831.50,0.0346
3831.00,0.0346
3830.50,0.0346
3830.00,0.0346
3829.50,0.0346
3829.00,0.0346
3828.50,0.0346
3828.00,0.0346
3827.50,0.0347
3827.00,0.0347
3826.50,0.0347
3826.00,0.0347
3825.50,0.0347
3825.00,0.0347
3824.50,0.0347
3824.00,0.0347
3823.50,0.0348
3823.00,0.0348
3822.50,0.0348
3822.00,0.0349
3821.50,0.0349
3821.00,0.0351
3820.50,0.0351
3820.00,0.0351
3819.50,0.0351
3819.00,0.0350
3818.50,0.0350
3818.00,0.0349
3817.50,0.0349
3817.00,0.0349
3816.50,0.0350
3816.00,0.0350
3815.50,0.0351
3815.00,0.0351
3814.50,0.0351
3814.00,0.0351
3813.50,0.0352
3813.00,0.0352
3812.50,0.0351
3812.00,0.0351
3811.50,0.0351
3811.00,0.0351
3810.50,0.0351
3810.00,0.0351
3809.50,0.0352
3809.00,0.0353
3808.50,0.0354
3808.00,0.0355
3807.50,0.0356
3807.00,0.0356
3806.50,0.0355
3806.00,0.0354
3805.50,0.0354
3805.00,0.0354
3804.50,0.0354
3804.00,0.0354
3803.50,0.0354
3803.00,0.0355
3802.50,0.0356
3802.00,0.0358
3801.50,0.0360
3801.00,0.0361
3800.50,0.0361
3800.00,0.0361
3799.50,0.0360
3799.00,0.0360
3798.50,0.0360
3798.00,0.0360
3797.50,0.0360
3797.00,0.0360
3796.50,0.0360
3796.00,0.0360
3795.50,0.0360
3795.00,0.0361
3794.50,0.0362
3794.00,0.0362
3793.50,0.0363
3793.00,0.0363
3792.50,0.0364
3792.00,0.0364
3791.50,0.0364
3791.00,0.0365
3790.50,0.0365
3790.00,0.0366
3789.50,0.0367
3789.00,0.0368
3788.50,0.0368
3788.00,0.0369
3787.50,0.0370
3787.00,0.0370
3786.50,0.0371
3786.00,0.0371
3785.50,0.0372
3785.00,0.0373
3784.50,0.0374
3784.00,0.0374
3783.50,0.0375
3783.00,0.0375
3782.50,0.0376
3782.00,0.0376
3781.50,0.0377
3781.00,0.0378
3780.50,0.0378
3780.00,0.0379
3779.50,0.0380
3779.00,0.0381
3778.50,0.0381
3778.00,0.0382
3777.50,0.0383
3777.00,0.0383
3776.50,0.0384
3776.00,0.0384
3775.50,0.0384
3775.00,0.0385
3774.50,0.0385
3774.00,0.0386
3773.50,0.0386
3773.00,0.0387
3772.50,0.0388
3772.00,0.0388
3771.50,0.0389
3771.00,0.0389
3770.50,0.0389
3770.00,0.0389
3769.50,0.0389
3769.00,0.0390
3768.50,0.0391
3768.00,0.0391
3767.50,0.0391
3767.00,0.0391
3766.50,0.0391
3766.00,0.0391
3765.50,0.0392
3765.00,0.0392
3764.50,0.0392
3764.00,0.0393
3763.50,0.0393
3763.00,0.0393
3762.50,0.0393
3762.00,0.0394
3761.50,0.0394
3761.00,0.0393
3760.50,0.0393
3760.00,0.0393
3759.50,0.0394
3759.00,0.0394
3758.50,0.0394
3758.00,0.0395
3757.50,0.0395
3757.00,0.0394
3756.50,0.0394
3756.00,0.0393
3755.50,0.0393
3755.00,0.0393
3754.50,0.0393
3754.00,0.0393
3753.50,0.0393
3753.00,0.0392
3752.50,0.0392
3752.00,0.0392
3751.50,0.0392
3751.00,0.0392
3750.50,0.0393
3750.00,0.0392
3749.50,0.0392
3749.00,0.0391
3748.50,0.0391
3748.00,0.0390
3747.50,0.0389
3747.00,0.0388
3746.50,0.0388
3746.00,0.0388
3745.50,0.0387
3745.00,0.0387
3744.50,0.0388
3744.00,0.0389
3743.50,0.0389
3743.00,0.0388
3742.50,0.0387
3742.00,0.0386
3741.50,0.0385
3741.00,0.0383
3740.50,0.0382
3740.00,0.0381
3739.50,0.0380
3739.00,0.0380
3738.50,0.0379
3738.00,0.0379
3737.50,0.0378
3737.00,0.0378
3736.50,0.0379
3736.00,0.0379
3735.50,0.0380
3735.00,0.0381
3734.50,0.0382
3734.00,0.0383
3733.50,0.0384
3733.00,0.0385
3732.50,0.0385
3732.00,0.0386
3731.50,0.0386
3731.00,0.0387
3730.50,0.0388
3730.00,0.0388
3729.50,0.0388
3729.00,0.0388
3728.50,0.0388
3728.00,0.0389
3727.50,0.0389
3727.00,0.0389
3726.50,0.0390
3726.00,0.0391
3725.50,0.0392
3725.00,0.0394
3724.50,0.0395
3724.00,0.0395
3723.50,0.0396
3723.00,0.0397
3722.50,0.0398
3722.00,0.0399
3721.50,0.0400
3721.00,0.0401
3720.50,0.0402
3720.00,0.0403
3719.50,0.0404
3719.00,0.0404
3718.50,0.0405
3718.00,0.0406
3717.50,0.0407
3717.00,0.0408
3716.50,0.0408
3716.00,0.0409
3715.50,0.0410
3715.00,0.0411
3714.50,0.0412
3714.00,0.0412
3713.50,0.0413
3713.00,0.0414
3712.50,0.0415
3712.00,0.0417
3711.50,0.0419
3711.00,0.0422
3710.50,0.0424
3710.00,0.0425
3709.50,0.0425
3709.00,0.0425
3708.50,0.0426
3708.00,0.0427
3707.50,0.0427
3707.00,0.0428
3706.50,0.0429
3706.00,0.0430
3705.50,0.0431
3705.00,0.0432
3704.50,0.0433
3704.00,0.0433
3703.50,0.0434
3703.00,0.0434
3702.50,0.0435
3702.00,0.0436
3701.50,0.0436
3701.00,0.0436
3700.50,0.0436
3700.00,0.0436
3699.50,0.0436
3699.00,0.0435
3698.50,0.0434
3698.00,0.0434
3697.50,0.0434
3697.00,0.0433
3696.50,0.0433
3696.00,0.0432
3695.50,0.0432
3695.00,0.0431
3694.50,0.0431
3694.00,0.0431
3693.50,0.0431
3693.00,0.0430
3692.50,0.0429
3692.00,0.0429
3691.50,0.0429
3691.00,0.0428
3690.50,0.0428
3690.00,0.0428
3689.50,0.0427
3689.00,0.0425
3688.50,0.0423
3688.00,0.0421
3687.50,0.0420
3687.00,0.0420
3686.50,0.0419
3686.00,0.0418
3685.50,0.0418
3685.00,0.0417
3684.50,0.0417
3684.00,0.0416
3683.50,0.0415
3683.00,0.0414
3682.50,0.0413
3682.00,0.0413
3681.50,0.0412
3681.00,0.0412
3680.50,0.0412
3680.00,0.0412
3679.50,0.0412
3679.00,0.0411
3678.50,0.0411
3678.00,0.0410
3677.50,0.0410
3677.00,0.0410
3676.50,0.0408
3676.00,0.0407
3675.50,0.0408
3675.00,0.0409
3674.50,0.0411
3674.00,0.0411
3673.50,0.0411
3673.00,0.0410
3672.50,0.0410
3672.00,0.0410
3671.50,0.0410
3671.00,0.0411
3670.50,0.0411
3670.00,0.0412
3669.50,0.0414
3669.00,0.0414
3668.50,0.0414
3668.00,0.0415
3667.50,0.0415
3667.00,0.0415
3666.50,0.0415
3666.00,0.0414
3665.50,0.0414
3665.00,0.0414
3664.50,0.0415
3664.00,0.0416
3663.50,0.0416
3663.00,0.0417
3662.50,0.0418
3662.00,0.0418
3661.50,0.0419
3661.00,0.0419
3660.50,0.0419
3660.00,0.0420
3659.50,0.0420
3659.00,0.0421
3658.50,0.0421
3658.00,0.0422
3657.50,0.0423
3657.00,0.0424
3656.50,0.0425
3656.00,0.0425
3655.50,0.0426
3655.00,0.0427
3654.50,0.0427
3654.00,0.0428
3653.50,0.0428
3653.00,0.0429
3652.50,0.0429
3652.00,0.0429
3651.50,0.0429
3651.00,0.0429
3650.50,0.0429
3650.00,0.0430
3649.50,0.0431
3649.00,0.0432
3648.50,0.0433
3648.00,0.0433
3647.50,0.0434
3647.00,0.0435
3646.50,0.0436
3646.00,0.0436
3645.50,0.0436
3645.00,0.0436
3644.50,0.0436
3644.00,0.0437
3643.50,0.0437
3643.00,0.0438
3642.50,0.0438
3642.00,0.0438
3641.50,0.0438
3641.00,0.0438
3640.50,0.0438
3640.00,0.0438
3639.50,0.0438
3639.00,0.0438
3638.50,0.0437
3638.00,0.0436
3637.50,0.0435
3637.00,0.0433
3636.50,0.0433
3636.00,0.0432
3635.50,0.0433
3635.00,0.0433
3634.50,0.0433
3634.00,0.0433
3633.50,0.0432
3633.00,0.0432
3632.50,0.0431
3632.00,0.0431
3631.50,0.0431
3631.00,0.0431
3630.50,0.0430
3630.00,0.0429
3629.50,0.0428
3629.00,0.0427
3628.50,0.0427
3628.00,0.0428
3627.50,0.0428
3627.00,0.0427
3626.50,0.0427
3626.00,0.0426
3625.50,0.0426
3625.00,0.0425
3624.50,0.0424
3624.00,0.0424
3623.50,0.0424
3623.00,0.0424
3622.50,0.0425
3622.00,0.0425
3621.50,0.0426
3621.00,0.0426
3620.50,0.0427
3620.00,0.0427
3619.50,0.0427
3619.00,0.0426
3618.50,0.0426
3618.00,0.0426
3617.50,0.0425
3617.00,0.0424
3616.50,0.0424
3616.00,0.0424
3615.50,0.0424
3615.00,0.0423
3614.50,0.0423
3614.00,0.0423
3613.50,0.0423
3613.00,0.0424
3612.50,0.0424
3612.00,0.0424
3611.50,0.0424
3611.00,0.0424
3610.50,0.0423
3610.00,0.0422
3609.50,0.0422
3609.00,0.0421
3608.50,0.0422
3608.00,0.0423
3607.50,0.0424
3607.00,0.0425
3606.50,0.0425
3606.00,0.0425
3605.50,0.0426
3605.00,0.0426
3604.50,0.0426
3604.00,0.0427
3603.50,0.0427
3603.00,0.0427
3602.50,0.0427
3602.00,0.0427
3601.50,0.0428
3601.00,0.0428
3600.50,0.0428
3600.00,0.0428
3599.50,0.0428
3599.00,0.0428
3598.50,0.0428
3598.00,0.0428
3597.50,0.0427
3597.00,0.0427
3596.50,0.0427
3596.00,0.0427
3595.50,0.0427
3595.00,0.0427
3594.50,0.0427
3594.00,0.0428
3593.50,0.0428
3593.00,0.0428
3592.50,0.0427
3592.00,0.0427
3591.50,0.0427
3591.00,0.0426
3590.50,0.0425
3590.00,0.0424
3589.50,0.0424
3589.00,0.0423
3588.50,0.0423
3588.00,0.0424
3587.50,0.0424
3587.00,0.0425
3586.50,0.0424
3586.00,0.0424
3585.50,0.0424
3585.00,0.0424
3584.50,0.0424
3584.00,0.0424
3583.50,0.0424
3583.00,0.0423
3582.50,0.0423
3582.00,0.0423
3581.50,0.0423
3581.00,0.0423
3580.50,0.0423
3580.00,0.0423
3579.50,0.0422
3579.00,0.0422
3578.50,0.0422
3578.00,0.0421
3577.50,0.0421
3577.00,0.0420
3576.50,0.0420
3576.00,0.0419
3575.50,0.0419
3575.00,0.0419
3574.50,0.0418
3574.00,0.0418
3573.50,0.0417
3573.00,0.0417
3572.50,0.0416
3572.00,0.0416
3571.50,0.0415
3571.00,0.0415
3570.50,0.0414
3570.00,0.0413
3569.50,0.0412
3569.00,0.0411
3568.50,0.0409
3568.00,0.0408
3567.50,0.0407
3567.00,0.0408
3566.50,0.0409
3566.00,0.0410
3565.50,0.0411
3565.00,0.0411
3564.50,0.0412
3564.00,0.0411
3563.50,0.0411
3563.00,0.0410
3562.50,0.0410
3562.00,0.0409
3561.50,0.0409
3561.00,0.0409
3560.50,0.0409
3560.00,0.0409
3559.50,0.0409
3559.00,0.0409
3558.50,0.0409
3558.00,0.0408
3557.50,0.0408
3557.00,0.0407
3556.50,0.0407
3556.00,0.0407
3555.50,0.0406
3555.00,0.0406
3554.50,0.0406
3554.00,0.0406
3553.50,0.0406
3553.00,0.0406
3552.50,0.0405
3552.00,0.0405
3551.50,0.0405
3551.00,0.0405
3550.50,0.0405
3550.00,0.0404
3549.50,0.0404
3549.00,0.0403
3548.50,0.0403
3548.00,0.0402
3547.50,0.0401
3547.00,0.0400
3546.50,0.0400
3546.00,0.0400
3545.50,0.0401
3545.00,0.0402
3544.50,0.0402
3544.00,0.0403
3543.50,0.0403
3543.00,0.0403
3542.50,0.0403
3542.00,0.0402
3541.50,0.0403
3541.00,0.0403
3540.50,0.0403
3540.00,0.0403
3539.50,0.0402
3539.00,0.0402
3538.50,0.0402
3538.00,0.0402
3537.50,0.0402
3537.00,0.0402
3536.50,0.0401
3536.00,0.0402
3535.50,0.0402
3535.00,0.0402
3534.50,0.0401
3534.00,0.0401
3533.50,0.0401
3533.00,0.0401
3532.50,0.0401
3532.00,0.0401
3531.50,0.0401
3531.00,0.0401
3530.50,0.0401
3530.00,0.0401
3529.50,0.0401
3529.00,0.0401
3528.50,0.0401
3528.00,0.0400
3527.50,0.0400
3527.00,0.0399
3526.50,0.0399
3526.00,0.0398
3525.50,0.0398
3525.00,0.0397
3524.50,0.0397
3524.00,0.0398
3523.50,0.0398
3523.00,0.0398
3522.50,0.0399
3522.00,0.0399
3521.50,0.0399
3521.00,0.0399
3520.50,0.0399
3520.00,0.0398
3519.50,0.0398
3519.00,0.0398
3518.50,0.0398
3518.00,0.0398
3517.50,0.0397
3517.00,0.0397
3516.50,0.0397
3516.00,0.0397
3515.50,0.0397
3515.00,0.0397
3514.50,0.0396
3514.00,0.0396
3513.50,0.0396
3513.00,0.0396
3512.50,0.0395
3512.00,0.0395
3511.50,0.0395
3511.00,0.0395
3510.50,0.0395
3510.00,0.0395
3509.50,0.0394
3509.00,0.0394
3508.50,0.0394
3508.00,0.0394
3507.50,0.0394
3507.00,0.0394
3506.50,0.0393
3506.00,0.0393
3505.50,0.0393
3505.00,0.0393
3504.50,0.0392
3504.00,0.0392
3503.50,0.0391
3503.00,0.0391
3502.50,0.0391
3502.00,0.0391
3501.50,0.0391
3501.00,0.0391
3500.50,0.0391
3500.00,0.0391
3499.50,0.0391
3499.00,0.0391
3498.50,0.0390
3498.00,0.0390
3497.50,0.0390
3497.00,0.0390
3496.50,0.0390
3496.00,0.0390
3495.50,0.0390
3495.00,0.0390
3494.50,0.0389
3494.00,0.0389
3493.50,0.0389
3493.00,0.0389
3492.50,0.0389
3492.00,0.0388
3491.50,0.0388
3491.00,0.0388
3490.50,0.0388
3490.00,0.0388
3489.50,0.0387
3489.00,0.0387
3488.50,0.0387
3488.00,0.0387
3487.50,0.0386
3487.00,0.0386
3486.50,0.0386
3486.00,0.0386
3485.50,0.0386
3485.00,0.0386
3484.50,0.0386
3484.00,0.0386
3483.50,0.0385
3483.00,0.0385
3482.50,0.0385
3482.00,0.0385
3481.50,0.0384
3481.00,0.0384
3480.50,0.0384
3480.00,0.0383
3479.50,0.0383
3479.00,0.0383
3478.50,0.0383
3478.00,0.0383
3477.50,0.0383
3477.00,0.0383
3476.50,0.0383
3476.00,0.0383
3475.50,0.0383
3475.00,0.0382
3474.50,0.0382
3474.00,0.0382
3473.50,0.0382
3473.00,0.0381
3472.50,0.0381
3472.00,0.0381
3471.50,0.0380
3471.00,0.0380
3470.50,0.0379
3470.00,0.0379
3469.50,0.0379
3469.00,0.0378
3468.50,0.0378
3468.00,0.0378
3467.50,0.0378
3467.00,0.0378
3466.50,0.0378
3466.00,0.0378
3465.50,0.0378
3465.00,0.0378
3464.50,0.0378
3464.00,0.0377
3463.50,0.0377
3463.00,0.0377
3462.50,0.0377
3462.00,0.0377
3461.50,0.0377
3461.00,0.0376
3460.50,0.0376
3460.00,0.0376
3459.50,0.0376
3459.00,0.0376
3458.50,0.0375
3458.00,0.0375
3457.50,0.0375
3457.00,0.0375
3456.50,0.0375
3456.00,0.0375
3455.50,0.0375
3455.00,0.0374
3454.50,0.0374
3454.00,0.0374
3453.50,0.0374
3453.00,0.0373
3452.50,0.0373
3452.00,0.0373
3451.50,0.0373
3451.00,0.0372
3450.50,0.0372
3450.00,0.0372
3449.50,0.0372
3449.00,0.0372
3448.50,0.0372
3448.00,0.0372
3447.50,0.0372
3447.00,0.0371
3446.50,0.0371
3446.00,0.0371
3445.50,0.0370
3445.00,0.0370
3444.50,0.0370
3444.00,0.0369
3443.50,0.0369
3443.00,0.0369
3442.50,0.0369
3442.00,0.0369
3441.50,0.0369
3441.00,0.0369
3440.50,0.0368
3440.00,0.0368
3439.50,0.0368
3439.00,0.0368
3438.50,0.0367
3438.00,0.0367
3437.50,0.0366
3437.00,0.0366
3436.50,0.0366
3436.00,0.0366
3435.50,0.0365
3435.00,0.0365
3434.50,0.0365
3434.00,0.0365
3433.50,0.0366
3433.00,0.0366
3432.50,0.0365
3432.00,0.0365
3431.50,0.0365
3431.00,0.0364
3430.50,0.0364
3430.00,0.0364
3429.50,0.0364
3429.00,0.0364
3428.50,0.0364
3428.00,0.0364
3427.50,0.0364
3427.00,0.0364
3426.50,0.0364
3426.00,0.0363
3425.50,0.0363
3425.00,0.0363
3424.50,0.0363
3424.00,0.0363
3423.50,0.0363
3423.00,0.0362
3422.50,0.0362
3422.00,0.0362
3421.50,0.0362
3421.00,0.0362
3420.50,0.0362
3420.00,0.0362
3419.50,0.0362
3419.00,0.0361
3418.50,0.0361
3418.00,0.0361
3417.50,0.0361
3417.00,0.0361
3416.50,0.0361
3416.00,0.0361
3415.50,0.0360
3415.00,0.0360
3414.50,0.0360
3414.00,0.0360
3413.50,0.0360
3413.00,0.0359
3412.50,0.0359
3412.00,0.0359
3411.50,0.0359
3411.00,0.0359
3410.50,0.0359
3410.00,0.0359
3409.50,0.0358
3409.00,0.0358
3408.50,0.0358
3408.00,0.0358
3407.50,0.0358
3407.00,0.0358
3406.50,0.0358
3406.00,0.0358
3405.50,0.0358
3405.00,0.0358
3404.50,0.0358
3404.00,0.0358
3403.50,0.0357
3403.00,0.0357
3402.50,0.0356
3402.00,0.0356
3401.50,0.0356
3401.00,0.0355
3400.50,0.0355
3400.00,0.0355
3399.50,0.0355
3399.00,0.0356
3398.50,0.0356
3398.00,0.0356
3397.50,0.0356
3397.00,0.0356
3396.50,0.0356
3396.00,0.0356
3395.50,0.0355
3395.00,0.0355
3394.50,0.0355
3394.00,0.0355
3393.50,0.0355
3393.00,0.0354
3392.50,0.0354
3392.00,0.0354
3391.50,0.0354
3391.00,0.0354
3390.50,0.0354
3390.00,0.0354
3389.50,0.0354
3389.00,0.0354
3388.50,0.0354
3388.00,0.0354
3387.50,0.0354
3387.00,0.0354
3386.50,0.0354
3386.00,0.0354
3385.50,0.0354
3385.00,0.0354
3384.50,0.0354
3384.00,0.0354
3383.50,0.0354
3383.00,0.0354
3382.50,0.0353
3382.00,0.0353
3381.50,0.0353
3381.00,0.0353
3380.50,0.0353
3380.00,0.0353
3379.50,0.0353
3379.00,0.0353
3378.50,0.0353
3378.00,0.0353
3377.50,0.0353
3377.00,0.0352
3376.50,0.0352
3376.00,0.0352
3375.50,0.0352
3375.00,0.0352
3374.50,0.0352
3374.00,0.0352
3373.50,0.0352
3373.00,0.0352
3372.50,0.0352
3372.00,0.0352
3371.50,0.0352
3371.00,0.0351
3370.50,0.0351
3370.00,0.0351
3369.50,0.0351
3369.00,0.0351
3368.50,0.0351
3368.00,0.0351
3367.50,0.0351
3367.00,0.0351
3366.50,0.0351
3366.00,0.0351
3365.50,0.0351
3365.00,0.0351
3364.50,0.0352
3364.00,0.0352
3363.50,0.0352
3363.00,0.0352
3362.50,0.0351
3362.00,0.0351
3361.50,0.0351
3361.00,0.0351
3360.50,0.0351
3360.00,0.0351
3359.50,0.0351
3359.00,0.0351
3358.50,0.0351
3358.00,0.0351
3357.50,0.0351
3357.00,0.0351
3356.50,0.0351
3356.00,0.0351
3355.50,0.0351
3355.00,0.0351
3354.50,0.0351
3354.00,0.0351
3353.50,0.0351
3353.00,0.0351
3352.50,0.0350
3352.00,0.0350
3351.50,0.0350
3351.00,0.0350
3350.50,0.0350
3350.00,0.0350
3349.50,0.0350
3349.00,0.0350
3348.50,0.0350
3348.00,0.0350
3347.50,0.0350
3347.00,0.0350
3346.50,0.0350
3346.00,0.0350
3345.50,0.0350
3345.00,0.0350
3344.50,0.0349
3344.00,0.0349
3343.50,0.0349
3343.00,0.0349
3342.50,0.0349
3342.00,0.0349
3341.50,0.0349
3341.00,0.0349
3340.50,0.0349
3340.00,0.0349
3339.50,0.0348
3339.00,0.0348
3338.50,0.0348
3338.00,0.0348
3337.50,0.0348
3337.00,0.0349
3336.50,0.0349
3336.00,0.0349
3335.50,0.0349
3335.00,0.0349
3334.50,0.0349
3334.00,0.0349
3333.50,0.0348
3333.00,0.0348
3332.50,0.0348
3332.00,0.0348
3331.50,0.0348
3331.00,0.0348
3330.50,0.0348
3330.00,0.0348
3329.50,0.0348
3329.00,0.0348
3328.50,0.0348
3328.00,0.0347
3327.50,0.0347
3327.00,0.0347
3326.50,0.0347
3326.00,0.0347
3325.50,0.0347
3325.00,0.0347
3324.50,0.0347
3324.00,0.0347
3323.50,0.0347
3323.00,0.0347
3322.50,0.0347
3322.00,0.0347
3321.50,0.0347
3321.00,0.0347
3320.50,0.0347
3320.00,0.0347
3319.50,0.0347
3319.00,0.0347
3318.50,0.0347
3318.00,0.0347
3317.50,0.0346
3317.00,0.0346
3316.50,0.0347
3316.00,0.0347
3315.50,0.0346
3315.00,0.0346
3314.50,0.0346
3314.00,0.0346
3313.50,0.0346
3313.00,0.0346
3312.50,0.0346
3312.00,0.0346
3311.50,0.0346
3311.00,0.0346
3310.50,0.0345
3310.00,0.0345
3309.50,0.0345
3309.00,0.0345
3308.50,0.0345
3308.00,0.0345
3307.50,0.0344
3307.00,0.0344
3306.50,0.0344
3306.00,0.0344
3305.50,0.0344
3305.00,0.0344
3304.50,0.0345
3304.00,0.0345
3303.50,0.0345
3303.00,0.0345
3302.50,0.0345
3302.00,0.0345
3301.50,0.0345
3301.00,0.0345
3300.50,0.0345
3300.00,0.0345
3299.50,0.0345
3299.00,0.0345
3298.50,0.0345
3298.00,0.0345
3297.50,0.0345
3297.00,0.0345
3296.50,0.0344
3296.00,0.0344
3295.50,0.0344
3295.00,0.0344
3294.50,0.0344
3294.00,0.0344
3293.50,0.0344
3293.00,0.0344
3292.50,0.0344
3292.00,0.0344
3291.50,0.0344
3291.00,0.0344
3290.50,0.0345
3290.00,0.0345
3289.50,0.0345
3289.00,0.0345
3288.50,0.0345
3288.00,0.0345
3287.50,0.0345
3287.00,0.0345
3286.50,0.0345
3286.00,0.0345
3285.50,0.0345
3285.00,0.0345
3284.50,0.0345
3284.00,0.0345
3283.50,0.0345
3283.00,0.0345
3282.50,0.0345
3282.00,0.0345
3281.50,0.0345
3281.00,0.0345
3280.50,0.0345
3280.00,0.0345
3279.50,0.0345
3279.00,0.0345
3278.50,0.0345
3278.00,0.0345
3277.50,0.0345
3277.00,0.0345
3276.50,0.0344
3276.00,0.0344
3275.50,0.0344
3275.00,0.0344
3274.50,0.0344
3274.00,0.0344
3273.50,0.0344
3273.00,0.0344
3272.50,0.0344
3272.00,0.0344
3271.50,0.0344
3271.00,0.0344
3270.50,0.0344
3270.00,0.0344
3269.50,0.0344
3269.00,0.0345
3268.50,0.0345
3268.00,0.0345
3267.50,0.0345
3267.00,0.0345
3266.50,0.0345
3266.00,0.0345
3265.50,0.0345
3265.00,0.0345
3264.50,0.0345
3264.00,0.0345
3263.50,0.0345
3263.00,0.0345
3262.50,0.0345
3262.00,0.0345
3261.50,0.0345
3261.00,0.0345
3260.50,0.0345
3260.00,0.0345
3259.50,0.0345
3259.00,0.0345
3258.50,0.0345
3258.00,0.0345
3257.50,0.0345
3257.00,0.0345
3256.50,0.0345
3256.00,0.0345
3255.50,0.0345
3255.00,0.0345
3254.50,0.0345
3254.00,0.0346
3253.50,0.0346
3253.00,0.0346
3252.50,0.0346
3252.00,0.0346
3251.50,0.0346
3251.00,0.0346
3250.50,0.0346
3250.00,0.0346
3249.50,0.0346
3249.00,0.0346
3248.50,0.0346
3248.00,0.0346
3247.50,0.0346
3247.00,0.0346
3246.50,0.0346
3246.00,0.0346
3245.50,0.0346
3245.00,0.0347
3244.50,0.0347
3244.00,0.0347
3243.50,0.0347
3243.00,0.0347
3242.50,0.0347
3242.00,0.0347
3241.50,0.0347
3241.00,0.0347
3240.50,0.0347
3240.00,0.0347
3239.50,0.0347
3239.00,0.0347
3238.50,0.0347
3238.00,0.0348
3237.50,0.0348
3237.00,0.0348
3236.50,0.0348
3236.00,0.0348
3235.50,0.0347
3235.00,0.0347
3234.50,0.0347
3234.00,0.0347
3233.50,0.0347
3233.00,0.0348
3232.50,0.0348
3232.00,0.0348
3231.50,0.0349
3231.00,0.0349
3230.50,0.0349
3230.00,0.0349
3229.50,0.0349
3229.00,0.0349
3228.50,0.0349
3228.00,0.0349
3227.50,0.0349
3227.00,0.0350
3226.50,0.0350
3226.00,0.0350
3225.50,0.0350
3225.00,0.0350
3224.50,0.0350
3224.00,0.0350
3223.50,0.0350
3223.00,0.0350
3222.50,0.0350
3222.00,0.0350
3221.50,0.0350
3221.00,0.0350
3220.50,0.0350
3220.00,0.0350
3219.50,0.0350
3219.00,0.0350
3218.50,0.0351
3218.00,0.0351
3217.50,0.0351
3217.00,0.0351
3216.50,0.0351
3216.00,0.0351
3215.50,0.0351
3215.00,0.0351
3214.50,0.0351
3214.00,0.0352
3213.50,0.0352
3213.00,0.0352
3212.50,0.0352
3212.00,0.0352
3211.50,0.0352
3211.00,0.0352
3210.50,0.0352
3210.00,0.0352
3209.50,0.0352
3209.00,0.0353
3208.50,0.0353
3208.00,0.0353
3207.50,0.0353
3207.00,0.0353
3206.50,0.0353
3206.00,0.0354
3205.50,0.0354
3205.00,0.0354
3204.50,0.0354
3204.00,0.0354
3203.50,0.0354
3203.00,0.0354
3202.50,0.0354
3202.00,0.0355
3201.50,0.0355
3201.00,0.0355
3200.50,0.0355
3200.00,0.0355
3199.50,0.0355
3199.00,0.0355
3198.50,0.0356
3198.00,0.0356
3197.50,0.0356
3197.00,0.0356
3196.50,0.0356
3196.00,0.0357
3195.50,0.0357
3195.00,0.0357
3194.50,0.0357
3194.00,0.0357
3193.50,0.0358
3193.00,0.0358
3192.50,0.0358
3192.00,0.0358
3191.50,0.0358
3191.00,0.0359
3190.50,0.0359
3190.00,0.0359
3189.50,0.0359
3189.00,0.0360
3188.50,0.0360
3188.00,0.0360
3187.50,0.0360
3187.00,0.0361
3186.50,0.0361
3186.00,0.0361
3185.50,0.0361
3185.00,0.0361
3184.50,0.0361
3184.00,0.0362
3183.50,0.0362
3183.00,0.0361
3182.50,0.0362
3182.00,0.0362
3181.50,0.0361
3181.00,0.0361
3180.50,0.0361
3180.00,0.0361
3179.50,0.0361
3179.00,0.0361
3178.50,0.0362
3178.00,0.0362
3177.50,0.0362
3177.00,0.0362
3176.50,0.0362
3176.00,0.0362
3175.50,0.0362
3175.00,0.0362
3174.50,0.0362
3174.00,0.0362
3173.50,0.0363
3173.00,0.0363
3172.50,0.0363
3172.00,0.0363
3171.50,0.0363
3171.00,0.0363
3170.50,0.0364
3170.00,0.0364
3169.50,0.0364
3169.00,0.0364
3168.50,0.0364
3168.00,0.0365
3167.50,0.0365
3167.00,0.0365
3166.50,0.0365
3166.00,0.0366
3165.50,0.0366
3165.00,0.0366
3164.50,0.0366
3164.00,0.0367
3163.50,0.0367
3163.00,0.0367
3162.50,0.0367
3162.00,0.0368
3161.50,0.0368
3161.00,0.0368
3160.50,0.0368
3160.00,0.0369
3159.50,0.0369
3159.00,0.0369
3158.50,0.0370
3158.00,0.0370
3157.50,0.0370
3157.00,0.0371
3156.50,0.0371
3156.00,0.0371
3155.50,0.0372
3155.00,0.0372
3154.50,0.0372
3154.00,0.0372
3153.50,0.0372
3153.00,0.0373
3152.50,0.0373
3152.00,0.0373
3151.50,0.0374
3151.00,0.0375
3150.50,0.0375
3150.00,0.0376
3149.50,0.0376
3149.00,0.0377
3148.50,0.0377
3148.00,0.0378
3147.50,0.0378
3147.00,0.0379
3146.50,0.0379
3146.00,0.0379
3145.50,0.0380
3145.00,0.0381
3144.50,0.0381
3144.00,0.0382
3143.50,0.0382
3143.00,0.0383
3142.50,0.0383
3142.00,0.0384
3141.50,0.0384
3141.00,0.0384
3140.50,0.0385
3140.00,0.0385
3139.50,0.0386
3139.00,0.0387
3138.50,0.0387
3138.00,0.0388
3137.50,0.0389
3137.00,0.0390
3136.50,0.0391
3136.00,0.0391
3135.50,0.0392
3135.00,0.0393
3134.50,0.0394
3134.00,0.0394
3133.50,0.0395
3133.00,0.0395
3132.50,0.0396
3132.00,0.0397
3131.50,0.0398
3131.00,0.0398
3130.50,0.0399
3130.00,0.0399
3129.50,0.0400
3129.00,0.0401
3128.50,0.0402
3128.00,0.0403
3127.50,0.0404
3127.00,0.0405
3126.50,0.0405
3126.00,0.0406
3125.50,0.0407
3125.00,0.0408
3124.50,0.0408
3124.00,0.0409
3123.50,0.0410
3123.00,0.0410
3122.50,0.0411
3122.00,0.0411
3121.50,0.0412
3121.00,0.0412
3120.50,0.0412
3120.00,0.0413
3119.50,0.0414
3119.00,0.0415
3118.50,0.0415
3118.00,0.0416
3117.50,0.0416
3117.00,0.0417
3116.50,0.0417
3116.00,0.0418
3115.50,0.0419
3115.00,0.0419
3114.50,0.0420
3114.00,0.0421
3113.50,0.0422
3113.00,0.0422
3112.50,0.0423
3112.00,0.0423
3111.50,0.0424
3111.00,0.0424
3110.50,0.0424
3110.00,0.0424
3109.50,0.0424
3109.00,0.0424
3108.50,0.0425
3108.00,0.0425
3107.50,0.0426
3107.00,0.0426
3106.50,0.0426
3106.00,0.0427
3105.50,0.0427
3105.00,0.0427
3104.50,0.0427
3104.00,0.0427
3103.50,0.0428
3103.00,0.0428
3102.50,0.0428
3102.00,0.0428
3101.50,0.0428
3101.00,0.0428
3100.50,0.0428
3100.00,0.0428
3099.50,0.0429
3099.00,0.0429
3098.50,0.0430
3098.00,0.0430
3097.50,0.0430
3097.00,0.0430
3096.50,0.0430
3096.00,0.0430
3095.50,0.0431
3095.00,0.0431
3094.50,0.0431
3094.00,0.0431
3093.50,0.0432
3093.00,0.0432
3092.50,0.0432
3092.00,0.0432
3091.50,0.0432
3091.00,0.0432
3090.50,0.0432
3090.00,0.0433
3089.50,0.0433
3089.00,0.0434
3088.50,0.0434
3088.00,0.0434
3087.50,0.0435
3087.00,0.0435
3086.50,0.0435
3086.00,0.0435
3085.50,0.0435
3085.00,0.0436
3084.50,0.0436
3084.00,0.0437
3083.50,0.0438
3083.00,0.0438
3082.50,0.0439
3082.00,0.0439
3081.50,0.0439
3081.00,0.0439
3080.50,0.0440
3080.00,0.0440
3079.50,0.0440
3079.00,0.0441
3078.50,0.0441
3078.00,0.0442
3077.50,0.0443
3077.00,0.0444
3076.50,0.0445
3076.00,0.0445
3075.50,0.0446
3075.00,0.0447
3074.50,0.0448
3074.00,0.0448
3073.50,0.0449
3073.00,0.0450
3072.50,0.0450
3072.00,0.0451
3071.50,0.0452
3071.00,0.0453
3070.50,0.0453
3070.00,0.0454
3069.50,0.0455
3069.00,0.0455
3068.50,0.0456
3068.00,0.0457
3067.50,0.0458
3067.00,0.0459
3066.50,0.0460
3066.00,0.0462
3065.50,0.0463
3065.00,0.0465
3064.50,0.0466
3064.00,0.0467
3063.50,0.0469
3063.00,0.0470
3062.50,0.0472
3062.00,0.0474
3061.50,0.0476
3061.00,0.0478
3060.50,0.0480
3060.00,0.0482
3059.50,0.0484
3059.00,0.0486
3058.50,0.0488
3058.00,0.0490
3057.50,0.0492
3057.00,0.0494
3056.50,0.0496
3056.00,0.0498
3055.50,0.0499
3055.00,0.0501
3054.50,0.0502
3054.00,0.0503
3053.50,0.0504
3053.00,0.0504
3052.50,0.0504
3052.00,0.0503
3051.50,0.0503
3051.00,0.0501
3050.50,0.0500
3050.00,0.0498
3049.50,0.0497
3049.00,0.0494
3048.50,0.0492
3048.00,0.0490
3047.50,0.0487
3047.00,0.0485
3046.50,0.0483
3046.00,0.0481
3045.50,0.0479
3045.00,0.0478
3044.50,0.0476
3044.00,0.0475
3043.50,0.0474
3043.00,0.0472
3042.50,0.0471
3042.00,0.0471
3041.50,0.0470
3041.00,0.0469
3040.50,0.0469
3040.00,0.0469
3039.50,0.0469
3039.00,0.0468
3038.50,0.0468
3038.00,0.0468
3037.50,0.0468
3037.00,0.0467
3036.50,0.0467
3036.00,0.0466
3035.50,0.0466
3035.00,0.0466
3034.50,0.0466
3034.00,0.0466
3033.50,0.0466
3033.00,0.0466
3032.50,0.0467
3032.00,0.0467
3031.50,0.0467
3031.00,0.0468
3030.50,0.0468
3030.00,0.0468
3029.50,0.0469
3029.00,0.0469
3028.50,0.0470
3028.00,0.0471
3027.50,0.0471
3027.00,0.0472
3026.50,0.0473
3026.00,0.0474
3025.50,0.0474
3025.00,0.0475
3024.50,0.0476
3024.00,0.0478
3023.50,0.0479
3023.00,0.0480
3022.50,0.0482
3022.00,0.0483
3021.50,0.0484
3021.00,0.0486
3020.50,0.0487
3020.00,0.0489
3019.50,0.0490
3019.00,0.0492
3018.50,0.0493
3018.00,0.0494
3017.50,0.0496
3017.00,0.0497
3016.50,0.0498
3016.00,0.0499
3015.50,0.0500
3015.00,0.0501
3014.50,0.0502
3014.00,0.0503
3013.50,0.0504
3013.00,0.0505
3012.50,0.0506
3012.00,0.0506
3011.50,0.0507
3011.00,0.0508
3010.50,0.0509
3010.00,0.0511
3009.50,0.0512
3009.00,0.0513
3008.50,0.0514
3008.00,0.0515
3007.50,0.0517
3007.00,0.0518
3006.50,0.0520
3006.00,0.0522
3005.50,0.0524
3005.00,0.0526
3004.50,0.0528
3004.00,0.0530
3003.50,0.0533
3003.00,0.0535
3002.50,0.0538
3002.00,0.0542
3001.50,0.0545
3001.00,0.0549
3000.50,0.0552
3000.00,0.0556
2999.50,0.0561
2999.00,0.0565
2998.50,0.0570
2998.00,0.0576
2997.50,0.0582
2997.00,0.0588
2996.50,0.0595
2996.00,0.0602
2995.50,0.0609
2995.00,0.0617
2994.50,0.0625
2994.00,0.0634
2993.50,0.0643
2993.00,0.0653
2992.50,0.0663
2992.00,0.0674
2991.50,0.0686
2991.00,0.0699
2990.50,0.0712
2990.00,0.0726
2989.50,0.0741
2989.00,0.0757
2988.50,0.0773
2988.00,0.0791
2987.50,0.0810
2987.00,0.0829
2986.50,0.0850
2986.00,0.0872
2985.50,0.0896
2985.00,0.0921
2984.50,0.0946
2984.00,0.0972
2983.50,0.0997
2983.00,0.1024
2982.50,0.1054
2982.00,0.1089
2981.50,0.1130
2981.00,0.1176
2980.50,0.1226
2980.00,0.1280
2979.50,0.1337
2979.00,0.1398
2978.50,0.1464
2978.00,0.1535
2977.50,0.1610
2977.00,0.1690
2976.50,0.1776
2976.00,0.1867
2975.50,0.1963
2975.00,0.2066
2974.50,0.2175
2974.00,0.2291
2973.50,0.2414
2973.00,0.2543
2972.50,0.2679
2972.00,0.2822
2971.50,0.2971
2971.00,0.3127
2970.50,0.3291
2970.00,0.3461
2969.50,0.3635
2969.00,0.3810
2968.50,0.3985
2968.00,0.4157
2967.50,0.4323
2967.00,0.4482
2966.50,0.4632
2966.00,0.4769
2965.50,0.4889
2965.00,0.4991
2964.50,0.5070
2964.00,0.5126
2963.50,0.5154
2963.00,0.5155
2962.50,0.5130
2962.00,0.5078
2961.50,0.4999
2961.00,0.4897
2960.50,0.4774
2960.00,0.4634
2959.50,0.4479
2959.00,0.4312
2958.50,0.4138
2958.00,0.3960
2957.50,0.3781
2957.00,0.3603
2956.50,0.3428
2956.00,0.3258
2955.50,0.3094
2955.00,0.2938
2954.50,0.2789
2954.00,0.2649
2953.50,0.2517
2953.00,0.2393
2952.50,0.2278
2952.00,0.2171
2951.50,0.2072
2951.00,0.1980
2950.50,0.1894
2950.00,0.1814
2949.50,0.1739
2949.00,0.1669
2948.50,0.1604
2948.00,0.1543
2947.50,0.1486
2947.00,0.1434
2946.50,0.1385
2946.00,0.1340
2945.50,0.1298
2945.00,0.1258
2944.50,0.1221
2944.00,0.1187
2943.50,0.1155
2943.00,0.1126
2942.50,0.1098
2942.00,0.1072
2941.50,0.1048
2941.00,0.1025
2940.50,0.1003
2940.00,0.0983
2939.50,0.0964
2939.00,0.0946
2938.50,0.0929
2938.00,0.0913
2937.50,0.0899
2937.00,0.0885
2936.50,0.0872
2936.00,0.0860
2935.50,0.0849
2935.00,0.0838
2934.50,0.0828
2934.00,0.0819
2933.50,0.0810
2933.00,0.0802
2932.50,0.0794
2932.00,0.0787
2931.50,0.0780
2931.00,0.0774
2930.50,0.0769
2930.00,0.0764
2929.50,0.0760
2929.00,0.0757
2928.50,0.0754
2928.00,0.0752
2927.50,0.0750
2927.00,0.0748
2926.50,0.0747
2926.00,0.0747
2925.50,0.0747
2925.00,0.0747
2924.50,0.0748
2924.00,0.0749
2923.50,0.0751
2923.00,0.0753
2922.50,0.0756
2922.00,0.0759
2921.50,0.0762
2921.00,0.0766
2920.50,0.0771
2920.00,0.0776
2919.50,0.0781
2919.00,0.0787
2918.50,0.0793
2918.00,0.0800
2917.50,0.0807
2917.00,0.0814
2916.50,0.0821
2916.00,0.0829
2915.50,0.0837
2915.00,0.0846
2914.50,0.0855
2914.00,0.0864
2913.50,0.0875
2913.00,0.0887
2912.50,0.0900
2912.00,0.0915
2911.50,0.0929
2911.00,0.0945
2910.50,0.0961
2910.00,0.0978
2909.50,0.0995
2909.00,0.1011
2908.50,0.1026
2908.00,0.1041
2907.50,0.1054
2907.00,0.1065
2906.50,0.1074
2906.00,0.1081
2905.50,0.1085
2905.00,0.1086
2904.50,0.1085
2904.00,0.1081
2903.50,0.1074
2903.00,0.1065
2902.50,0.1054
2902.00,0.1041
2901.50,0.1026
2901.00,0.1010
2900.50,0.0992
2900.00,0.0974
2899.50,0.0955
2899.00,0.0936
2898.50,0.0917
2898.00,0.0898
2897.50,0.0879
2897.00,0.0860
2896.50,0.0842
2896.00,0.0824
2895.50,0.0807
2895.00,0.0791
2894.50,0.0776
2894.00,0.0761
2893.50,0.0746
2893.00,0.0732
2892.50,0.0719
2892.00,0.0707
2891.50,0.0695
2891.00,0.0684
2890.50,0.0674
2890.00,0.0664
2889.50,0.0655
2889.00,0.0646
2888.50,0.0638
2888.00,0.0631
2887.50,0.0623
2887.00,0.0616
2886.50,0.0610
2886.00,0.0604
2885.50,0.0598
2885.00,0.0592
2884.50,0.0586
2884.00,0.0580
2883.50,0.0575
2883.00,0.0571
2882.50,0.0567
2882.00,0.0563
2881.50,0.0560
2881.00,0.0556
2880.50,0.0553
2880.00,0.0550
2879.50,0.0547
2879.00,0.0544
2878.50,0.0541
2878.00,0.0539
2877.50,0.0536
2877.00,0.0533
2876.50,0.0530
2876.00,0.0527
2875.50,0.0524
2875.00,0.0521
2874.50,0.0518
2874.00,0.0516
2873.50,0.0513
2873.00,0.0511
2872.50,0.0508
2872.00,0.0506
2871.50,0.0504
2871.00,0.0502
2870.50,0.0500
2870.00,0.0498
2869.50,0.0496
2869.00,0.0494
2868.50,0.0493
2868.00,0.0491
2867.50,0.0490
2867.00,0.0488
2866.50,0.0487
2866.00,0.0486
2865.50,0.0485
2865.00,0.0484
2864.50,0.0484
2864.00,0.0483
2863.50,0.0483
2863.00,0.0482
2862.50,0.0482
2862.00,0.0482
2861.50,0.0481
2861.00,0.0481
2860.50,0.0481
2860.00,0.0481
2859.50,0.0482
2859.00,0.0482
2858.50,0.0482
2858.00,0.0483
2857.50,0.0483
2857.00,0.0483
2856.50,0.0484
2856.00,0.0485
2855.50,0.0486
2855.00,0.0487
2854.50,0.0488
2854.00,0.0489
2853.50,0.0490
2853.00,0.0492
2852.50,0.0494
2852.00,0.0496
2851.50,0.0497
2851.00,0.0499
2850.50,0.0500
2850.00,0.0500
2849.50,0.0499
2849.00,0.0498
2848.50,0.0495
2848.00,0.0492
2847.50,0.0489
2847.00,0.0486
2846.50,0.0482
2846.00,0.0479
2845.50,0.0476
2845.00,0.0474
2844.50,0.0471
2844.00,0.0469
2843.50,0.0467
2843.00,0.0465
2842.50,0.0463
2842.00,0.0462
2841.50,0.0461
2841.00,0.0459
2840.50,0.0458
2840.00,0.0457
2839.50,0.0456
2839.00,0.0454
2838.50,0.0454
2838.00,0.0453
2837.50,0.0452
2837.00,0.0451
2836.50,0.0450
2836.00,0.0449
2835.50,0.0449
2835.00,0.0448
2834.50,0.0447
2834.00,0.0446
2833.50,0.0445
2833.00,0.0445
2832.50,0.0444
2832.00,0.0443
2831.50,0.0443
2831.00,0.0442
2830.50,0.0441
2830.00,0.0441
2829.50,0.0440
2829.00,0.0440
2828.50,0.0439
2828.00,0.0439
2827.50,0.0439
2827.00,0.0439
2826.50,0.0438
2826.00,0.0438
2825.50,0.0438
2825.00,0.0438
2824.50,0.0437
2824.00,0.0437
2823.50,0.0437
2823.00,0.0438
2822.50,0.0438
2822.00,0.0438
2821.50,0.0438
2821.00,0.0438
2820.50,0.0438
2820.00,0.0438
2819.50,0.0439
2819.00,0.0439
2818.50,0.0439
2818.00,0.0439
2817.50,0.0439
2817.00,0.0440
2816.50,0.0440
2816.00,0.0440
2815.50,0.0440
2815.00,0.0441
2814.50,0.0441
2814.00,0.0441
2813.50,0.0441
2813.00,0.0441
2812.50,0.0441
2812.00,0.0441
2811.50,0.0441
2811.00,0.0441
2810.50,0.0441
2810.00,0.0441
2809.50,0.0441
2809.00,0.0441
2808.50,0.0441
2808.00,0.0441
2807.50,0.0441
2807.00,0.0441
2806.50,0.0441
2806.00,0.0440
2805.50,0.0440
2805.00,0.0440
2804.50,0.0440
2804.00,0.0439
2803.50,0.0439
2803.00,0.0439
2802.50,0.0439
2802.00,0.0439
2801.50,0.0438
2801.00,0.0438
2800.50,0.0438
2800.00,0.0437
2799.50,0.0437
2799.00,0.0437
2798.50,0.0436
2798.00,0.0436
2797.50,0.0435
2797.00,0.0435
2796.50,0.0434
2796.00,0.0434
2795.50,0.0433
2795.00,0.0432
2794.50,0.0431
2794.00,0.0431
2793.50,0.0429
2793.00,0.0428
2792.50,0.0427
2792.00,0.0425
2791.50,0.0424
2791.00,0.0422
2790.50,0.0421
2790.00,0.0419
2789.50,0.0417
2789.00,0.0415
2788.50,0.0413
2788.00,0.0411
2787.50,0.0410
2787.00,0.0407
2786.50,0.0405
2786.00,0.0403
2785.50,0.0401
2785.00,0.0399
2784.50,0.0397
2784.00,0.0395
2783.50,0.0393
2783.00,0.0391
2782.50,0.0389
2782.00,0.0387
2781.50,0.0385
2781.00,0.0383
2780.50,0.0382
2780.00,0.0380
2779.50,0.0378
2779.00,0.0376
2778.50,0.0375
2778.00,0.0373
2777.50,0.0372
2777.00,0.0370
2776.50,0.0369
2776.00,0.0367
2775.50,0.0366
2775.00,0.0365
2774.50,0.0364
2774.00,0.0363
2773.50,0.0362
2773.00,0.0361
2772.50,0.0360
2772.00,0.0359
2771.50,0.0358
2771.00,0.0357
2770.50,0.0356
2770.00,0.0355
2769.50,0.0354
2769.00,0.0353
2768.50,0.0352
2768.00,0.0352
2767.50,0.0351
2767.00,0.0350
2766.50,0.0349
2766.00,0.0349
2765.50,0.0348
2765.00,0.0348
2764.50,0.0347
2764.00,0.0346
2763.50,0.0346
2763.00,0.0345
2762.50,0.0344
2762.00,0.0344
2761.50,0.0343
2761.00,0.0343
2760.50,0.0342
2760.00,0.0342
2759.50,0.0341
2759.00,0.0341
2758.50,0.0341
2758.00,0.0340
2757.50,0.0340
2757.00,0.0339
2756.50,0.0339
2756.00,0.0339
2755.50,0.0338
2755.00,0.0338
2754.50,0.0338
2754.00,0.0337
2753.50,0.0337
2753.00,0.0337
2752.50,0.0336
2752.00,0.0336
2751.50,0.0336
2751.00,0.0335
2750.50,0.0335
2750.00,0.0335
2749.50,0.0335
2749.00,0.0334
2748.50,0.0334
2748.00,0.0333
2747.50,0.0333
2747.00,0.0333
2746.50,0.0333
2746.00,0.0333
2745.50,0.0332
2745.00,0.0332
2744.50,0.0332
2744.00,0.0332
2743.50,0.0332
2743.00,0.0331
2742.50,0.0331
2742.00,0.0331
2741.50,0.0331
2741.00,0.0331
2740.50,0.0330
2740.00,0.0330
2739.50,0.0330
2739.00,0.0330
2738.50,0.0329
2738.00,0.0329
2737.50,0.0329
2737.00,0.0329
2736.50,0.0329
2736.00,0.0329
2735.50,0.0328
2735.00,0.0328
2734.50,0.0328
2734.00,0.0328
2733.50,0.0328
2733.00,0.0328
2732.50,0.0328
2732.00,0.0328
2731.50,0.0328
2731.00,0.0327
2730.50,0.0327
2730.00,0.0327
2729.50,0.0327
2729.00,0.0327
2728.50,0.0327
2728.00,0.0327
2727.50,0.0326
2727.00,0.0326
2726.50,0.0326
2726.00,0.0326
2725.50,0.0326
2725.00,0.0326
2724.50,0.0326
2724.00,0.0326
2723.50,0.0326
2723.00,0.0326
2722.50,0.0326
2722.00,0.0325
2721.50,0.0325
2721.00,0.0325
2720.50,0.0325
2720.00,0.0325
2719.50,0.0326
2719.00,0.0326
2718.50,0.0325
2718.00,0.0325
2717.50,0.0325
2717.00,0.0325
2716.50,0.0325
2716.00,0.0325
2715.50,0.0326
2715.00,0.0326
2714.50,0.0326
2714.00,0.0326
2713.50,0.0326
2713.00,0.0326
2712.50,0.0326
2712.00,0.0326
2711.50,0.0325
2711.00,0.0325
2710.50,0.0325
2710.00,0.0325
2709.50,0.0326
2709.00,0.0326
2708.50,0.0326
2708.00,0.0326
2707.50,0.0326
2707.00,0.0326
2706.50,0.0326
2706.00,0.0325
2705.50,0.0325
2705.00,0.0325
2704.50,0.0325
2704.00,0.0325
2703.50,0.0325
2703.00,0.0325
2702.50,0.0325
2702.00,0.0325
2701.50,0.0325
2701.00,0.0324
2700.50,0.0324
2700.00,0.0324
2699.50,0.0324
2699.00,0.0324
2698.50,0.0324
2698.00,0.0324
2697.50,0.0324
2697.00,0.0324
2696.50,0.0324
2696.00,0.0324
2695.50,0.0324
2695.00,0.0323
2694.50,0.0323
2694.00,0.0323
2693.50,0.0323
2693.00,0.0323
2692.50,0.0323
2692.00,0.0323
2691.50,0.0323
2691.00,0.0323
2690.50,0.0323
2690.00,0.0323
2689.50,0.0323
2689.00,0.0323
2688.50,0.0323
2688.00,0.0323
2687.50,0.0324
2687.00,0.0324
2686.50,0.0324
2686.00,0.0324
2685.50,0.0324
2685.00,0.0324
2684.50,0.0324
2684.00,0.0324
2683.50,0.0325
2683.00,0.0325
2682.50,0.0325
2682.00,0.0325
2681.50,0.0325
2681.00,0.0325
2680.50,0.0326
2680.00,0.0326
2679.50,0.0326
2679.00,0.0327
2678.50,0.0327
2678.00,0.0327
2677.50,0.0327
2677.00,0.0328
2676.50,0.0328
2676.00,0.0328
2675.50,0.0329
2675.00,0.0329
2674.50,0.0329
2674.00,0.0329
2673.50,0.0330
2673.00,0.0330
2672.50,0.0331
2672.00,0.0331
2671.50,0.0331
2671.00,0.0332
2670.50,0.0332
2670.00,0.0332
2669.50,0.0332
2669.00,0.0333
2668.50,0.0333
2668.00,0.0333
2667.50,0.0334
2667.00,0.0334
2666.50,0.0334
2666.00,0.0334
2665.50,0.0335
2665.00,0.0335
2664.50,0.0335
2664.00,0.0335
2663.50,0.0335
2663.00,0.0335
2662.50,0.0335
2662.00,0.0335
2661.50,0.0335
2661.00,0.0335
2660.50,0.0335
2660.00,0.0335
2659.50,0.0335
2659.00,0.0334
2658.50,0.0334
2658.00,0.0334
2657.50,0.0334
2657.00,0.0333
2656.50,0.0333
2656.00,0.0332
2655.50,0.0332
2655.00,0.0332
2654.50,0.0331
2654.00,0.0331
2653.50,0.0330
2653.00,0.0330
2652.50,0.0329
2652.00,0.0329
2651.50,0.0328
2651.00,0.0328
2650.50,0.0327
2650.00,0.0327
2649.50,0.0326
2649.00,0.0326
2648.50,0.0325
2648.00,0.0325
2647.50,0.0324
2647.00,0.0324
2646.50,0.0323
2646.00,0.0323
2645.50,0.0322
2645.00,0.0322
2644.50,0.0321
2644.00,0.0321
2643.50,0.0321
2643.00,0.0320
2642.50,0.0320
2642.00,0.0319
2641.50,0.0319
2641.00,0.0318
2640.50,0.0318
2640.00,0.0318
2639.50,0.0317
2639.00,0.0317
2638.50,0.0317
2638.00,0.0317
2637.50,0.0316
2637.00,0.0316
2636.50,0.0316
2636.00,0.0316
2635.50,0.0315
2635.00,0.0315
2634.50,0.0315
2634.00,0.0315
2633.50,0.0314
2633.00,0.0314
2632.50,0.0314
2632.00,0.0314
2631.50,0.0314
2631.00,0.0313
2630.50,0.0313
2630.00,0.0313
2629.50,0.0313
2629.00,0.0313
2628.50,0.0312
2628.00,0.0312
2627.50,0.0312
2627.00,0.0312
2626.50,0.0312
2626.00,0.0312
2625.50,0.0312
2625.00,0.0312
2624.50,0.0311
2624.00,0.0311
2623.50,0.0311
2623.00,0.0311
2622.50,0.0311
2622.00,0.0311
2621.50,0.0311
2621.00,0.0311
2620.50,0.0311
2620.00,0.0310
2619.50,0.0310
2619.00,0.0310
2618.50,0.0310
2618.00,0.0310
2617.50,0.0310
2617.00,0.0310
2616.50,0.0310
2616.00,0.0310
2615.50,0.0309
2615.00,0.0309
2614.50,0.0309
2614.00,0.0309
2613.50,0.0309
2613.00,0.0309
2612.50,0.0309
2612.00,0.0309
2611.50,0.0309
2611.00,0.0309
2610.50,0.0309
2610.00,0.0309
2609.50,0.0308
2609.00,0.0308
2608.50,0.0308
2608.00,0.0308
2607.50,0.0308
2607.00,0.0308
2606.50,0.0308
2606.00,0.0308
2605.50,0.0308
2605.00,0.0308
2604.50,0.0308
2604.00,0.0308
2603.50,0.0308
2603.00,0.0308
2602.50,0.0308
2602.00,0.0308
2601.50,0.0307
2601.00,0.0307
2600.50,0.0307
2600.00,0.0307
2599.50,0.0307
2599.00,0.0307
2598.50,0.0307
2598.00,0.0307
2597.50,0.0307
2597.00,0.0307
2596.50,0.0307
2596.00,0.0307
2595.50,0.0307
2595.00,0.0307
2594.50,0.0307
2594.00,0.0307
2593.50,0.0307
2593.00,0.0307
2592.50,0.0307
2592.00,0.0307
2591.50,0.0307
2591.00,0.0307
2590.50,0.0306
2590.00,0.0306
2589.50,0.0306
2589.00,0.0306
2588.50,0.0306
2588.00,0.0306
2587.50,0.0306
2587.00,0.0306
2586.50,0.0306
2586.00,0.0306
2585.50,0.0306
2585.00,0.0306
2584.50,0.0306
2584.00,0.0306
2583.50,0.0306
2583.00,0.0306
2582.50,0.0306
2582.00,0.0306
2581.50,0.0305
2581.00,0.0305
2580.50,0.0305
2580.00,0.0305
2579.50,0.0305
2579.00,0.0305
2578.50,0.0305
2578.00,0.0305
2577.50,0.0305
2577.00,0.0305
2576.50,0.0305
2576.00,0.0305
2575.50,0.0305
2575.00,0.0305
2574.50,0.0305
2574.00,0.0305
2573.50,0.0305
2573.00,0.0305
2572.50,0.0305
2572.00,0.0305
2571.50,0.0305
2571.00,0.0305
2570.50,0.0305
2570.00,0.0305
2569.50,0.0305
2569.00,0.0305
2568.50,0.0304
2568.00,0.0304
2567.50,0.0304
2567.00,0.0304
2566.50,0.0304
2566.00,0.0304
2565.50,0.0304
2565.00,0.0304
2564.50,0.0304
2564.00,0.0304
2563.50,0.0304
2563.00,0.0304
2562.50,0.0304
2562.00,0.0304
2561.50,0.0304
2561.00,0.0304
2560.50,0.0304
2560.00,0.0304
2559.50,0.0304
2559.00,0.0304
2558.50,0.0304
2558.00,0.0304
2557.50,0.0304
2557.00,0.0304
2556.50,0.0304
2556.00,0.0303
2555.50,0.0303
2555.00,0.0303
2554.50,0.0303
2554.00,0.0303
2553.50,0.0303
2553.00,0.0303
2552.50,0.0303
2552.00,0.0303
2551.50,0.0303
2551.00,0.0303
2550.50,0.0303
2550.00,0.0303
2549.50,0.0303
2549.00,0.0303
2548.50,0.0303
2548.00,0.0303
2547.50,0.0303
2547.00,0.0303
2546.50,0.0303
2546.00,0.0302
2545.50,0.0302
2545.00,0.0302
2544.50,0.0302
2544.00,0.0302
2543.50,0.0302
2543.00,0.0302
2542.50,0.0302
2542.00,0.0302
2541.50,0.0302
2541.00,0.0301
2540.50,0.0301
2540.00,0.0301
2539.50,0.0301
2539.00,0.0301
2538.50,0.0301
2538.00,0.0301
2537.50,0.0301
2537.00,0.0301
2536.50,0.0301
2536.00,0.0301
2535.50,0.0301
2535.00,0.0301
2534.50,0.0300
2534.00,0.0300
2533.50,0.0300
2533.00,0.0301
2532.50,0.0301
2532.00,0.0301
2531.50,0.0301
2531.00,0.0301
2530.50,0.0301
2530.00,0.0301
2529.50,0.0301
2529.00,0.0300
2528.50,0.0300
2528.00,0.0300
2527.50,0.0300
2527.00,0.0300
2526.50,0.0301
2526.00,0.0301
2525.50,0.0301
2525.00,0.0301
2524.50,0.0301
2524.00,0.0301
2523.50,0.0301
2523.00,0.0301
2522.50,0.0301
2522.00,0.0302
2521.50,0.0302
2521.00,0.0302
2520.50,0.0302
2520.00,0.0302
2519.50,0.0302
2519.00,0.0302
2518.50,0.0303
2518.00,0.0303
2517.50,0.0303
2517.00,0.0303
2516.50,0.0303
2516.00,0.0304
2515.50,0.0304
2515.00,0.0304
2514.50,0.0305
2514.00,0.0305
2513.50,0.0305
2513.00,0.0306
2512.50,0.0306
2512.00,0.0306
2511.50,0.0307
2511.00,0.0307
2510.50,0.0308
2510.00,0.0309
2509.50,0.0309
2509.00,0.0310
2508.50,0.0311
2508.00,0.0312
2507.50,0.0313
2507.00,0.0314
2506.50,0.0315
2506.00,0.0316
2505.50,0.0317
2505.00,0.0319
2504.50,0.0320
2504.00,0.0321
2503.50,0.0322
2503.00,0.0324
2502.50,0.0325
2502.00,0.0326
2501.50,0.0327
2501.00,0.0327
2500.50,0.0328
2500.00,0.0328
2499.50,0.0328
2499.00,0.0328
2498.50,0.0328
2498.00,0.0328
2497.50,0.0327
2497.00,0.0327
2496.50,0.0326
2496.00,0.0325
2495.50,0.0324
2495.00,0.0324
2494.50,0.0323
2494.00,0.0322
2493.50,0.0321
2493.00,0.0320
2492.50,0.0320
2492.00,0.0319
2491.50,0.0318
2491.00,0.0317
2490.50,0.0316
2490.00,0.0316
2489.50,0.0315
2489.00,0.0314
2488.50,0.0314
2488.00,0.0313
2487.50,0.0312
2487.00,0.0312
2486.50,0.0311
2486.00,0.0311
2485.50,0.0310
2485.00,0.0310
2484.50,0.0309
2484.00,0.0309
2483.50,0.0309
2483.00,0.0308
2482.50,0.0308
2482.00,0.0308
2481.50,0.0307
2481.00,0.0307
2480.50,0.0307
2480.00,0.0307
2479.50,0.0307
2479.00,0.0306
2478.50,0.0306
2478.00,0.0306
2477.50,0.0305
2477.00,0.0305
2476.50,0.0305
2476.00,0.0305
2475.50,0.0305
2475.00,0.0305
2474.50,0.0305
2474.00,0.0304
2473.50,0.0304
2473.00,0.0304
2472.50,0.0304
2472.00,0.0304
2471.50,0.0304
2471.00,0.0304
2470.50,0.0304
2470.00,0.0304
2469.50,0.0303
2469.00,0.0303
2468.50,0.0303
2468.00,0.0303
2467.50,0.0303
2467.00,0.0303
2466.50,0.0303
2466.00,0.0303
2465.50,0.0303
2465.00,0.0303
2464.50,0.0303
2464.00,0.0303
2463.50,0.0303
2463.00,0.0303
2462.50,0.0303
2462.00,0.0303
2461.50,0.0302
2461.00,0.0302
2460.50,0.0302
2460.00,0.0302
2459.50,0.0302
2459.00,0.0302
2458.50,0.0302
2458.00,0.0302
2457.50,0.0302
2457.00,0.0302
2456.50,0.0302
2456.00,0.0302
2455.50,0.0302
2455.00,0.0301
2454.50,0.0301
2454.00,0.0301
2453.50,0.0301
2453.00,0.0301
2452.50,0.0301
2452.00,0.0301
2451.50,0.0301
2451.00,0.0301
2450.50,0.0301
2450.00,0.0301
2449.50,0.0301
2449.00,0.0301
2448.50,0.0301
2448.00,0.0301
2447.50,0.0301
2447.00,0.0301
2446.50,0.0301
2446.00,0.0301
2445.50,0.0301
2445.00,0.0301
2444.50,0.0301
2444.00,0.0301
2443.50,0.0301
2443.00,0.0301
2442.50,0.0301
2442.00,0.0301
2441.50,0.0301
2441.00,0.0301
2440.50,0.0300
2440.00,0.0300
2439.50,0.0300
2439.00,0.0300
2438.50,0.0300
2438.00,0.0300
2437.50,0.0300
2437.00,0.0300
2436.50,0.0300
2436.00,0.0300
2435.50,0.0300
2435.00,0.0300
2434.50,0.0300
2434.00,0.0300
2433.50,0.0300
2433.00,0.0300
2432.50,0.0300
2432.00,0.0300
2431.50,0.0300
2431.00,0.0300
2430.50,0.0300
2430.00,0.0300
2429.50,0.0300
2429.00,0.0300
2428.50,0.0300
2428.00,0.0300
2427.50,0.0300
2427.00,0.0300
2426.50,0.0300
2426.00,0.0300
2425.50,0.0299
2425.00,0.0299
2424.50,0.0299
2424.00,0.0299
2423.50,0.0299
2423.00,0.0299
2422.50,0.0299
2422.00,0.0299
2421.50,0.0299
2421.00,0.0299
2420.50,0.0299
2420.00,0.0299
2419.50,0.0299
2419.00,0.0299
2418.50,0.0299
2418.00,0.0299
2417.50,0.0299
2417.00,0.0299
2416.50,0.0299
2416.00,0.0299
2415.50,0.0299
2415.00,0.0299
2414.50,0.0299
2414.00,0.0299
2413.50,0.0299
2413.00,0.0299
2412.50,0.0299
2412.00,0.0299
2411.50,0.0299
2411.00,0.0299
2410.50,0.0299
2410.00,0.0299
2409.50,0.0299
2409.00,0.0299
2408.50,0.0299
2408.00,0.0299
2407.50,0.0299
2407.00,0.0299
2406.50,0.0299
2406.00,0.0299
2405.50,0.0299
2405.00,0.0299
2404.50,0.0299
2404.00,0.0299
2403.50,0.0299
2403.00,0.0299
2402.50,0.0299
2402.00,0.0299
2401.50,0.0299
2401.00,0.0299
2400.50,0.0299
2400.00,0.0299
2399.50,0.0299
2399.00,0.0299
2398.50,0.0298
2398.00,0.0299
2397.50,0.0299
2397.00,0.0299
2396.50,0.0299
2396.00,0.0299
2395.50,0.0298
2395.00,0.0298
2394.50,0.0298
2394.00,0.0298
2393.50,0.0298
2393.00,0.0298
2392.50,0.0298
2392.00,0.0298
2391.50,0.0298
2391.00,0.0298
2390.50,0.0298
2390.00,0.0298
2389.50,0.0298
2389.00,0.0298
2388.50,0.0298
2388.00,0.0298
2387.50,0.0298
2387.00,0.0298
2386.50,0.0298
2386.00,0.0298
2385.50,0.0298
2385.00,0.0298
2384.50,0.0298
2384.00,0.0298
2383.50,0.0298
2383.00,0.0298
2382.50,0.0298
2382.00,0.0298
2381.50,0.0298
2381.00,0.0298
2380.50,0.0298
2380.00,0.0298
2379.50,0.0298
2379.00,0.0298
2378.50,0.0298
2378.00,0.0298
2377.50,0.0298
2377.00,0.0298
2376.50,0.0298
2376.00,0.0298
2375.50,0.0298
2375.00,0.0298
2374.50,0.0298
2374.00,0.0298
2373.50,0.0297
2373.00,0.0297
2372.50,0.0297
2372.00,0.0297
2371.50,0.0297
2371.00,0.0297
2370.50,0.0297
2370.00,0.0297
2369.50,0.0297
2369.00,0.0297
2368.50,0.0297
2368.00,0.0297
2367.50,0.0297
2367.00,0.0297
2366.50,0.0296
2366.00,0.0296
2365.50,0.0297
2365.00,0.0296
2364.50,0.0296
2364.00,0.0296
2363.50,0.0296
2363.00,0.0296
2362.50,0.0296
2362.00,0.0296
2361.50,0.0297
2361.00,0.0297
2360.50,0.0296
2360.00,0.0296
2359.50,0.0296
2359.00,0.0296
2358.50,0.0297
2358.00,0.0297
2357.50,0.0297
2357.00,0.0296
2356.50,0.0296
2356.00,0.0296
2355.50,0.0296
2355.00,0.0296
2354.50,0.0296
2354.00,0.0297
2353.50,0.0296
2353.00,0.0296
2352.50,0.0296
2352.00,0.0296
2351.50,0.0296
2351.00,0.0296
2350.50,0.0296
2350.00,0.0296
2349.50,0.0297
2349.00,0.0297
2348.50,0.0297
2348.00,0.0297
2347.50,0.0297
2347.00,0.0297
2346.50,0.0297
2346.00,0.0297
2345.50,0.0297
2345.00,0.0297
2344.50,0.0297
2344.00,0.0297
2343.50,0.0297
2343.00,0.0297
2342.50,0.0297
2342.00,0.0297
2341.50,0.0297
2341.00,0.0297
2340.50,0.0297
2340.00,0.0297
2339.50,0.0297
2339.00,0.0297
2338.50,0.0297
2338.00,0.0297
2337.50,0.0298
2337.00,0.0298
2336.50,0.0297
2336.00,0.0297
2335.50,0.0298
2335.00,0.0297
2334.50,0.0297
2334.00,0.0297
2333.50,0.0298
2333.00,0.0297
2332.50,0.0297
2332.00,0.0298
2331.50,0.0298
2331.00,0.0297
2330.50,0.0297
2330.00,0.0297
2329.50,0.0298
2329.00,0.0297
2328.50,0.0297
2328.00,0.0298
2327.50,0.0298
2327.00,0.0297
2326.50,0.0297
2326.00,0.0298
2325.50,0.0298
2325.00,0.0298
2324.50,0.0298
2324.00,0.0298
2323.50,0.0298
2323.00,0.0298
2322.50,0.0298
2322.00,0.0298
2321.50,0.0298
2321.00,0.0298
2320.50,0.0298
2320.00,0.0298
2319.50,0.0298
2319.00,0.0298
2318.50,0.0299
2318.00,0.0299
2317.50,0.0299
2317.00,0.0299
2316.50,0.0299
2316.00,0.0299
2315.50,0.0299
2315.00,0.0299
2314.50,0.0299
2314.00,0.0299
2313.50,0.0299
2313.00,0.0299
2312.50,0.0299
2312.00,0.0299
2311.50,0.0299
2311.00,0.0299
2310.50,0.0299
2310.00,0.0299
2309.50,0.0299
2309.00,0.0299
2308.50,0.0299
2308.00,0.0299
2307.50,0.0299
2307.00,0.0300
2306.50,0.0300
2306.00,0.0300
2305.50,0.0300
2305.00,0.0300
2304.50,0.0300
2304.00,0.0300
2303.50,0.0300
2303.00,0.0300
2302.50,0.0300
2302.00,0.0300
2301.50,0.0300
2301.00,0.0300
2300.50,0.0300
2300.00,0.0300
2299.50,0.0301
2299.00,0.0301
2298.50,0.0301
2298.00,0.0301
2297.50,0.0301
2297.00,0.0301
2296.50,0.0301
2296.00,0.0301
2295.50,0.0301
2295.00,0.0301
2294.50,0.0301
2294.00,0.0301
2293.50,0.0302
2293.00,0.0302
2292.50,0.0302
2292.00,0.0302
2291.50,0.0302
2291.00,0.0302
2290.50,0.0302
2290.00,0.0302
2289.50,0.0302
2289.00,0.0302
2288.50,0.0302
2288.00,0.0302
2287.50,0.0303
2287.00,0.0303
2286.50,0.0303
2286.00,0.0303
2285.50,0.0303
2285.00,0.0303
2284.50,0.0303
2284.00,0.0303
2283.50,0.0303
2283.00,0.0303
2282.50,0.0304
2282.00,0.0304
2281.50,0.0304
2281.00,0.0304
2280.50,0.0304
2280.00,0.0304
2279.50,0.0304
2279.00,0.0304
2278.50,0.0304
2278.00,0.0304
2277.50,0.0304
2277.00,0.0304
2276.50,0.0305
2276.00,0.0305
2275.50,0.0305
2275.00,0.0305
2274.50,0.0305
2274.00,0.0305
2273.50,0.0305
2273.00,0.0305
2272.50,0.0305
2272.00,0.0305
2271.50,0.0305
2271.00,0.0305
2270.50,0.0305
2270.00,0.0305
2269.50,0.0305
2269.00,0.0305
2268.50,0.0305
2268.00,0.0305
2267.50,0.0305
2267.00,0.0305
2266.50,0.0305
2266.00,0.0305
2265.50,0.0305
2265.00,0.0305
2264.50,0.0305
2264.00,0.0305
2263.50,0.0305
2263.00,0.0305
2262.50,0.0305
2262.00,0.0305
2261.50,0.0305
2261.00,0.0305
2260.50,0.0305
2260.00,0.0305
2259.50,0.0305
2259.00,0.0305
2258.50,0.0305
2258.00,0.0305
2257.50,0.0305
2257.00,0.0305
2256.50,0.0305
2256.00,0.0305
2255.50,0.0305
2255.00,0.0305
2254.50,0.0305
2254.00,0.0305
2253.50,0.0306
2253.00,0.0306
2252.50,0.0306
2252.00,0.0306
2251.50,0.0306
2251.00,0.0306
2250.50,0.0306
2250.00,0.0306
2249.50,0.0306
2249.00,0.0306
2248.50,0.0306
2248.00,0.0306
2247.50,0.0306
2247.00,0.0307
2246.50,0.0307
2246.00,0.0307
2245.50,0.0307
2245.00,0.0307
2244.50,0.0307
2244.00,0.0307
2243.50,0.0307
2243.00,0.0307
2242.50,0.0307
2242.00,0.0307
2241.50,0.0307
2241.00,0.0308
2240.50,0.0308
2240.00,0.0308
2239.50,0.0308
2239.00,0.0308
2238.50,0.0308
2238.00,0.0309
2237.50,0.0309
2237.00,0.0309
2236.50,0.0309
2236.00,0.0309
2235.50,0.0309
2235.00,0.0309
2234.50,0.0310
2234.00,0.0310
2233.50,0.0310
2233.00,0.0310
2232.50,0.0310
2232.00,0.0311
2231.50,0.0311
2231.00,0.0311
2230.50,0.0311
2230.00,0.0311
2229.50,0.0312
2229.00,0.0312
2228.50,0.0312
2228.00,0.0313
2227.50,0.0313
2227.00,0.0313
2226.50,0.0313
2226.00,0.0314
2225.50,0.0314
2225.00,0.0314
2224.50,0.0315
2224.00,0.0315
2223.50,0.0315
2223.00,0.0316
2222.50,0.0316
2222.00,0.0316
2221.50,0.0317
2221.00,0.0317
2220.50,0.0317
2220.00,0.0318
2219.50,0.0318
2219.00,0.0318
2218.50,0.0319
2218.00,0.0319
2217.50,0.0319
2217.00,0.0320
2216.50,0.0320
2216.00,0.0321
2215.50,0.0321
2215.00,0.0321
2214.50,0.0322
2214.00,0.0322
2213.50,0.0323
2213.00,0.0323
2212.50,0.0324
2212.00,0.0324
2211.50,0.0325
2211.00,0.0325
2210.50,0.0326
2210.00,0.0327
2209.50,0.0327
2209.00,0.0328
2208.50,0.0328
2208.00,0.0329
2207.50,0.0330
2207.00,0.0330
2206.50,0.0331
2206.00,0.0332
2205.50,0.0333
2205.00,0.0333
2204.50,0.0334
2204.00,0.0335
2203.50,0.0336
2203.00,0.0337
2202.50,0.0338
2202.00,0.0339
2201.50,0.0340
2201.00,0.0341
2200.50,0.0342
2200.00,0.0343
2199.50,0.0344
2199.00,0.0346
2198.50,0.0347
2198.00,0.0348
2197.50,0.0349
2197.00,0.0351
2196.50,0.0352
2196.00,0.0354
2195.50,0.0355
2195.00,0.0357
2194.50,0.0358
2194.00,0.0360
2193.50,0.0362
2193.00,0.0364
2192.50,0.0365
2192.00,0.0367
2191.50,0.0369
2191.00,0.0371
2190.50,0.0374
2190.00,0.0376
2189.50,0.0378
2189.00,0.0380
2188.50,0.0383
2188.00,0.0385
2187.50,0.0388
2187.00,0.0391
2186.50,0.0394
2186.00,0.0396
2185.50,0.0399
2185.00,0.0402
2184.50,0.0405
2184.00,0.0408
2183.50,0.0412
2183.00,0.0415
2182.50,0.0419
2182.00,0.0422
2181.50,0.0426
2181.00,0.0430
2180.50,0.0434
2180.00,0.0438
2179.50,0.0442
2179.00,0.0446
2178.50,0.0450
2178.00,0.0454
2177.50,0.0458
2177.00,0.0462
2176.50,0.0466
2176.00,0.0470
2175.50,0.0474
2175.00,0.0478
2174.50,0.0483
2174.00,0.0487
2173.50,0.0491
2173.00,0.0495
2172.50,0.0499
2172.00,0.0503
2171.50,0.0506
2171.00,0.0510
2170.50,0.0514
2170.00,0.0517
2169.50,0.0521
2169.00,0.0524
2168.50,0.0527
2168.00,0.0530
2167.50,0.0532
2167.00,0.0535
2166.50,0.0537
2166.00,0.0540
2165.50,0.0541
2165.00,0.0543
2164.50,0.0545
2164.00,0.0546
2163.50,0.0547
2163.00,0.0547
2162.50,0.0548
2162.00,0.0548
2161.50,0.0548
2161.00,0.0548
2160.50,0.0547
2160.00,0.0547
2159.50,0.0546
2159.00,0.0544
2158.50,0.0543
2158.00,0.0541
2157.50,0.0539
2157.00,0.0537
2156.50,0.0535
2156.00,0.0532
2155.50,0.0530
2155.00,0.0527
2154.50,0.0524
2154.00,0.0521
2153.50,0.0517
2153.00,0.0514
2152.50,0.0510
2152.00,0.0507
2151.50,0.0503
2151.00,0.0499
2150.50,0.0495
2150.00,0.0491
2149.50,0.0487
2149.00,0.0483
2148.50,0.0479
2148.00,0.0474
2147.50,0.0470
2147.00,0.0466
2146.50,0.0462
2146.00,0.0458
2145.50,0.0454
2145.00,0.0450
2144.50,0.0446
2144.00,0.0442
2143.50,0.0438
2143.00,0.0435
2142.50,0.0431
2142.00,0.0427
2141.50,0.0424
2141.00,0.0420
2140.50,0.0417
2140.00,0.0414
2139.50,0.0411
2139.00,0.0407
2138.50,0.0404
2138.00,0.0401
2137.50,0.0399
2137.00,0.0396
2136.50,0.0393
2136.00,0.0390
2135.50,0.0388
2135.00,0.0385
2134.50,0.0383
2134.00,0.0381
2133.50,0.0379
2133.00,0.0376
2132.50,0.0374
2132.00,0.0373
2131.50,0.0371
2131.00,0.0369
2130.50,0.0367
2130.00,0.0366
2129.50,0.0364
2129.00,0.0363
2128.50,0.0361
2128.00,0.0360
2127.50,0.0358
2127.00,0.0357
2126.50,0.0356
2126.00,0.0355
2125.50,0.0354
2125.00,0.0353
2124.50,0.0352
2124.00,0.0351
2123.50,0.0350
2123.00,0.0349
2122.50,0.0348
2122.00,0.0347
2121.50,0.0347
2121.00,0.0346
2120.50,0.0345
2120.00,0.0344
2119.50,0.0344
2119.00,0.0343
2118.50,0.0342
2118.00,0.0342
2117.50,0.0341
2117.00,0.0341
2116.50,0.0340
2116.00,0.0340
2115.50,0.0339
2115.00,0.0339
2114.50,0.0338
2114.00,0.0338
2113.50,0.0338
2113.00,0.0337
2112.50,0.0337
2112.00,0.0337
2111.50,0.0337
2111.00,0.0336
2110.50,0.0336
2110.00,0.0336
2109.50,0.0335
2109.00,0.0335
2108.50,0.0335
2108.00,0.0335
2107.50,0.0334
2107.00,0.0334
2106.50,0.0334
2106.00,0.0334
2105.50,0.0334
2105.00,0.0333
2104.50,0.0333
2104.00,0.0333
2103.50,0.0333
2103.00,0.0332
2102.50,0.0332
2102.00,0.0332
2101.50,0.0332
2101.00,0.0331
2100.50,0.0331
2100.00,0.0331
2099.50,0.0331
2099.00,0.0331
2098.50,0.0331
2098.00,0.0330
2097.50,0.0330
2097.00,0.0330
2096.50,0.0330
2096.00,0.0330
2095.50,0.0330
2095.00,0.0330
2094.50,0.0329
2094.00,0.0329
2093.50,0.0329
2093.00,0.0329
2092.50,0.0329
2092.00,0.0329
2091.50,0.0329
2091.00,0.0329
2090.50,0.0329
2090.00,0.0329
2089.50,0.0329
2089.00,0.0329
2088.50,0.0329
2088.00,0.0329
2087.50,0.0329
2087.00,0.0329
2086.50,0.0329
2086.00,0.0329
2085.50,0.0329
2085.00,0.0329
2084.50,0.0329
2084.00,0.0329
2083.50,0.0329
2083.00,0.0329
2082.50,0.0329
2082.00,0.0329
2081.50,0.0329
2081.00,0.0329
2080.50,0.0330
2080.00,0.0330
2079.50,0.0330
2079.00,0.0330
2078.50,0.0330
2078.00,0.0330
2077.50,0.0330
2077.00,0.0331
2076.50,0.0331
2076.00,0.0331
2075.50,0.0331
2075.00,0.0331
2074.50,0.0331
2074.00,0.0332
2073.50,0.0332
2073.00,0.0332
2072.50,0.0332
2072.00,0.0332
2071.50,0.0332
2071.00,0.0333
2070.50,0.0333
2070.00,0.0333
2069.50,0.0333
2069.00,0.0334
2068.50,0.0334
2068.00,0.0334
2067.50,0.0335
2067.00,0.0335
2066.50,0.0335
2066.00,0.0336
2065.50,0.0336
2065.00,0.0336
2064.50,0.0336
2064.00,0.0337
2063.50,0.0337
2063.00,0.0337
2062.50,0.0338
2062.00,0.0338
2061.50,0.0338
2061.00,0.0339
2060.50,0.0339
2060.00,0.0339
2059.50,0.0340
2059.00,0.0340
2058.50,0.0340
2058.00,0.0340
2057.50,0.0341
2057.00,0.0341
2056.50,0.0341
2056.00,0.0342
2055.50,0.0342
2055.00,0.0342
2054.50,0.0342
2054.00,0.0343
2053.50,0.0343
2053.00,0.0343
2052.50,0.0343
2052.00,0.0343
2051.50,0.0343
2051.00,0.0343
2050.50,0.0343
2050.00,0.0343
2049.50,0.0343
2049.00,0.0342
2048.50,0.0342
2048.00,0.0341
2047.50,0.0341
2047.00,0.0340
2046.50,0.0339
2046.00,0.0339
2045.50,0.0338
2045.00,0.0337
2044.50,0.0336
2044.00,0.0335
2043.50,0.0335
2043.00,0.0334
2042.50,0.0333
2042.00,0.0332
2041.50,0.0331
2041.00,0.0330
2040.50,0.0329
2040.00,0.0328
2039.50,0.0328
2039.00,0.0327
2038.50,0.0326
2038.00,0.0326
2037.50,0.0325
2037.00,0.0325
2036.50,0.0324
2036.00,0.0324
2035.50,0.0323
2035.00,0.0323
2034.50,0.0323
2034.00,0.0322
2033.50,0.0322
2033.00,0.0322
2032.50,0.0322
2032.00,0.0322
2031.50,0.0321
2031.00,0.0321
2030.50,0.0321
2030.00,0.0321
2029.50,0.0321
2029.00,0.0321
2028.50,0.0321
2028.00,0.0321
2027.50,0.0321
2027.00,0.0322
2026.50,0.0322
2026.00,0.0322
2025.50,0.0322
2025.00,0.0323
2024.50,0.0323
2024.00,0.0323
2023.50,0.0323
2023.00,0.0323
2022.50,0.0324
2022.00,0.0324
2021.50,0.0325
2021.00,0.0325
2020.50,0.0325
2020.00,0.0325
2019.50,0.0326
2019.00,0.0326
2018.50,0.0327
2018.00,0.0327
2017.50,0.0328
2017.00,0.0328
2016.50,0.0329
2016.00,0.0329
2015.50,0.0330
2015.00,0.0330
2014.50,0.0331
2014.00,0.0331
2013.50,0.0332
2013.00,0.0332
2012.50,0.0333
2012.00,0.0333
2011.50,0.0334
2011.00,0.0334
2010.50,0.0335
2010.00,0.0335
2009.50,0.0336
2009.00,0.0336
2008.50,0.0336
2008.00,0.0337
2007.50,0.0337
2007.00,0.0337
2006.50,0.0338
2006.00,0.0338
2005.50,0.0339
2005.00,0.0339
2004.50,0.0339
2004.00,0.0340
2003.50,0.0340
2003.00,0.0341
2002.50,0.0341
2002.00,0.0341
2001.50,0.0341
2001.00,0.0342
2000.50,0.0342
2000.00,0.0342
1999.50,0.0343
1999.00,0.0343
1998.50,0.0343
1998.00,0.0343
1997.50,0.0343
1997.00,0.0343
1996.50,0.0343
1996.00,0.0343
1995.50,0.0343
1995.00,0.0343
1994.50,0.0343
1994.00,0.0343
1993.50,0.0343
1993.00,0.0344
1992.50,0.0344
1992.00,0.0344
1991.50,0.0344
1991.00,0.0344
1990.50,0.0344
1990.00,0.0344
1989.50,0.0344
1989.00,0.0345
1988.50,0.0345
1988.00,0.0346
1987.50,0.0346
1987.00,0.0346
1986.50,0.0347
1986.00,0.0347
1985.50,0.0347
1985.00,0.0348
1984.50,0.0349
1984.00,0.0349
1983.50,0.0350
1983.00,0.0350
1982.50,0.0351
1982.00,0.0352
1981.50,0.0352
1981.00,0.0353
1980.50,0.0354
1980.00,0.0355
1979.50,0.0356
1979.00,0.0357
1978.50,0.0357
1978.00,0.0358
1977.50,0.0359
1977.00,0.0360
1976.50,0.0361
1976.00,0.0362
1975.50,0.0363
1975.00,0.0364
1974.50,0.0366
1974.00,0.0367
1973.50,0.0368
1973.00,0.0369
1972.50,0.0371
1972.00,0.0372
1971.50,0.0373
1971.00,0.0374
1970.50,0.0375
1970.00,0.0377
1969.50,0.0378
1969.00,0.0379
1968.50,0.0381
1968.00,0.0382
1967.50,0.0384
1967.00,0.0385
1966.50,0.0386
1966.00,0.0387
1965.50,0.0388
1965.00,0.0389
1964.50,0.0390
1964.00,0.0391
1963.50,0.0393
1963.00,0.0394
1962.50,0.0395
1962.00,0.0396
1961.50,0.0397
1961.00,0.0398
1960.50,0.0398
1960.00,0.0399
1959.50,0.0400
1959.00,0.0401
1958.50,0.0402
1958.00,0.0403
1957.50,0.0404
1957.00,0.0405
1956.50,0.0407
1956.00,0.0408
1955.50,0.0409
1955.00,0.0410
1954.50,0.0411
1954.00,0.0412
1953.50,0.0413
1953.00,0.0414
1952.50,0.0415
1952.00,0.0417
1951.50,0.0418
1951.00,0.0419
1950.50,0.0420
1950.00,0.0422
1949.50,0.0423
1949.00,0.0424
1948.50,0.0425
1948.00,0.0426
1947.50,0.0427
1947.00,0.0428
1946.50,0.0429
1946.00,0.0430
1945.50,0.0430
1945.00,0.0430
1944.50,0.0430
1944.00,0.0430
1943.50,0.0431
1943.00,0.0430
1942.50,0.0430
1942.00,0.0428
1941.50,0.0427
1941.00,0.0426
1940.50,0.0424
1940.00,0.0423
1939.50,0.0422
1939.00,0.0420
1938.50,0.0418
1938.00,0.0417
1937.50,0.0415
1937.00,0.0413
1936.50,0.0411
1936.00,0.0409
1935.50,0.0407
1935.00,0.0405
1934.50,0.0403
1934.00,0.0402
1933.50,0.0400
1933.00,0.0399
1932.50,0.0397
1932.00,0.0396
1931.50,0.0395
1931.00,0.0394
1930.50,0.0392
1930.00,0.0391
1929.50,0.0391
1929.00,0.0390
1928.50,0.0389
1928.00,0.0388
1927.50,0.0387
1927.00,0.0386
1926.50,0.0385
1926.00,0.0385
1925.50,0.0384
1925.00,0.0384
1924.50,0.0384
1924.00,0.0384
1923.50,0.0384
1923.00,0.0384
1922.50,0.0383
1922.00,0.0382
1921.50,0.0381
1921.00,0.0380
1920.50,0.0380
1920.00,0.0379
1919.50,0.0379
1919.00,0.0379
1918.50,0.0378
1918.00,0.0377
1917.50,0.0377
1917.00,0.0376
1916.50,0.0375
1916.00,0.0375
1915.50,0.0374
1915.00,0.0374
1914.50,0.0373
1914.00,0.0372
1913.50,0.0372
1913.00,0.0371
1912.50,0.0370
1912.00,0.0369
1911.50,0.0369
1911.00,0.0368
1910.50,0.0368
1910.00,0.0367
1909.50,0.0366
1909.00,0.0366
1908.50,0.0365
1908.00,0.0364
1907.50,0.0363
1907.00,0.0362
1906.50,0.0362
1906.00,0.0361
1905.50,0.0361
1905.00,0.0360
1904.50,0.0360
1904.00,0.0359
1903.50,0.0359
1903.00,0.0358
1902.50,0.0358
1902.00,0.0357
1901.50,0.0357
1901.00,0.0357
1900.50,0.0356
1900.00,0.0356
1899.50,0.0356
1899.00,0.0356
1898.50,0.0355
1898.00,0.0355
1897.50,0.0355
1897.00,0.0355
1896.50,0.0355
1896.00,0.0355
1895.50,0.0355
1895.00,0.0356
1894.50,0.0355
1894.00,0.0355
1893.50,0.0355
1893.00,0.0355
1892.50,0.0354
1892.00,0.0354
1891.50,0.0355
1891.00,0.0355
1890.50,0.0356
1890.00,0.0356
1889.50,0.0356
1889.00,0.0356
1888.50,0.0355
1888.00,0.0355
1887.50,0.0355
1887.00,0.0355
1886.50,0.0355
1886.00,0.0355
1885.50,0.0356
1885.00,0.0356
1884.50,0.0356
1884.00,0.0356
1883.50,0.0356
1883.00,0.0356
1882.50,0.0356
1882.00,0.0356
1881.50,0.0356
1881.00,0.0356
1880.50,0.0356
1880.00,0.0356
1879.50,0.0356
1879.00,0.0356
1878.50,0.0356
1878.00,0.0356
1877.50,0.0356
1877.00,0.0356
1876.50,0.0356
1876.00,0.0356
1875.50,0.0356
1875.00,0.0356
1874.50,0.0356
1874.00,0.0356
1873.50,0.0356
1873.00,0.0356
1872.50,0.0356
1872.00,0.0356
1871.50,0.0356
1871.00,0.0356
1870.50,0.0357
1870.00,0.0357
1869.50,0.0357
1869.00,0.0357
1868.50,0.0358
1868.00,0.0358
1867.50,0.0358
1867.00,0.0357
1866.50,0.0357
1866.00,0.0357
1865.50,0.0357
1865.00,0.0357
1864.50,0.0357
1864.00,0.0357
1863.50,0.0357
1863.00,0.0357
1862.50,0.0357
1862.00,0.0357
1861.50,0.0356
1861.00,0.0356
1860.50,0.0356
1860.00,0.0356
1859.50,0.0356
1859.00,0.0356
1858.50,0.0357
1858.00,0.0357
1857.50,0.0357
1857.00,0.0357
1856.50,0.0357
1856.00,0.0357
1855.50,0.0357
1855.00,0.0357
1854.50,0.0357
1854.00,0.0357
1853.50,0.0357
1853.00,0.0357
1852.50,0.0357
1852.00,0.0357
1851.50,0.0357
1851.00,0.0357
1850.50,0.0357
1850.00,0.0357
1849.50,0.0357
1849.00,0.0357
1848.50,0.0357
1848.00,0.0357
1847.50,0.0356
1847.00,0.0356
1846.50,0.0356
1846.00,0.0356
1845.50,0.0356
1845.00,0.0356
1844.50,0.0356
1844.00,0.0355
1843.50,0.0355
1843.00,0.0355
1842.50,0.0355
1842.00,0.0355
1841.50,0.0355
1841.00,0.0355
1840.50,0.0355
1840.00,0.0355
1839.50,0.0355
1839.00,0.0355
1838.50,0.0355
1838.00,0.0355
1837.50,0.0355
1837.00,0.0356
1836.50,0.0355
1836.00,0.0355
1835.50,0.0355
1835.00,0.0355
1834.50,0.0355
1834.00,0.0355
1833.50,0.0355
1833.00,0.0356
1832.50,0.0356
1832.00,0.0356
1831.50,0.0357
1831.00,0.0358
1830.50,0.0359
1830.00,0.0360
1829.50,0.0360
1829.00,0.0360
1828.50,0.0359
1828.00,0.0358
1827.50,0.0358
1827.00,0.0358
1826.50,0.0358
1826.00,0.0359
1825.50,0.0359
1825.00,0.0360
1824.50,0.0360
1824.00,0.0360
1823.50,0.0360
1823.00,0.0360
1822.50,0.0360
1822.00,0.0361
1821.50,0.0361
1821.00,0.0361
1820.50,0.0362
1820.00,0.0362
1819.50,0.0362
1819.00,0.0362
1818.50,0.0362
1818.00,0.0362
1817.50,0.0362
1817.00,0.0363
1816.50,0.0364
1816.00,0.0364
1815.50,0.0364
1815.00,0.0365
1814.50,0.0365
1814.00,0.0366
1813.50,0.0366
1813.00,0.0367
1812.50,0.0367
1812.00,0.0368
1811.50,0.0368
1811.00,0.0368
1810.50,0.0369
1810.00,0.0369
1809.50,0.0370
1809.00,0.0371
1808.50,0.0371
1808.00,0.0371
1807.50,0.0372
1807.00,0.0373
1806.50,0.0373
1806.00,0.0374
1805.50,0.0374
1805.00,0.0374
1804.50,0.0375
1804.00,0.0375
1803.50,0.0376
1803.00,0.0377
1802.50,0.0377
1802.00,0.0377
1801.50,0.0377
1801.00,0.0378
1800.50,0.0379
1800.00,0.0379
1799.50,0.0380
1799.00,0.0381
1798.50,0.0382
1798.00,0.0382
1797.50,0.0382
1797.00,0.0383
1796.50,0.0384
1796.00,0.0384
1795.50,0.0385
1795.00,0.0385
1794.50,0.0385
1794.00,0.0385
1793.50,0.0386
1793.00,0.0387
1792.50,0.0388
1792.00,0.0387
1791.50,0.0387
1791.00,0.0387
1790.50,0.0388
1790.00,0.0389
1789.50,0.0390
1789.00,0.0390
1788.50,0.0391
1788.00,0.0391
1787.50,0.0391
1787.00,0.0391
1786.50,0.0391
1786.00,0.0391
1785.50,0.0391
1785.00,0.0391
1784.50,0.0391
1784.00,0.0392
1783.50,0.0393
1783.00,0.0393
1782.50,0.0394
1782.00,0.0394
1781.50,0.0395
1781.00,0.0395
1780.50,0.0395
1780.00,0.0395
1779.50,0.0395
1779.00,0.0395
1778.50,0.0395
1778.00,0.0395
1777.50,0.0395
1777.00,0.0395
1776.50,0.0395
1776.00,0.0396
1775.50,0.0396
1775.00,0.0396
1774.50,0.0396
1774.00,0.0396
1773.50,0.0397
1773.00,0.0397
1772.50,0.0398
1772.00,0.0398
1771.50,0.0398
1771.00,0.0397
1770.50,0.0396
1770.00,0.0396
1769.50,0.0396
1769.00,0.0395
1768.50,0.0395
1768.00,0.0395
1767.50,0.0395
1767.00,0.0395
1766.50,0.0394
1766.00,0.0394
1765.50,0.0394
1765.00,0.0395
1764.50,0.0395
1764.00,0.0395
1763.50,0.0395
1763.00,0.0395
1762.50,0.0395
1762.00,0.0395
1761.50,0.0395
1761.00,0.0395
1760.50,0.0395
1760.00,0.0394
1759.50,0.0394
1759.00,0.0394
1758.50,0.0394
1758.00,0.0394
1757.50,0.0394
1757.00,0.0393
1756.50,0.0393
1756.00,0.0392
1755.50,0.0392
1755.00,0.0393
1754.50,0.0393
1754.00,0.0392
1753.50,0.0392
1753.00,0.0391
1752.50,0.0389
1752.00,0.0387
1751.50,0.0385
1751.00,0.0386
1750.50,0.0388
1750.00,0.0390
1749.50,0.0392
1749.00,0.0393
1748.50,0.0394
1748.00,0.0395
1747.50,0.0395
1747.00,0.0395
1746.50,0.0395
1746.00,0.0395
1745.50,0.0395
1745.00,0.0396
1744.50,0.0396
1744.00,0.0396
1743.50,0.0397
1743.00,0.0397
1742.50,0.0397
1742.00,0.0397
1741.50,0.0397
1741.00,0.0397
1740.50,0.0397
1740.00,0.0398
1739.50,0.0399
1739.00,0.0398
1738.50,0.0397
1738.00,0.0397
1737.50,0.0397
1737.00,0.0397
1736.50,0.0397
1736.00,0.0398
1735.50,0.0398
1735.00,0.0397
1734.50,0.0393
1734.00,0.0391
1733.50,0.0392
1733.00,0.0394
1732.50,0.0396
1732.00,0.0399
1731.50,0.0400
1731.00,0.0401
1730.50,0.0401
1730.00,0.0401
1729.50,0.0401
1729.00,0.0401
1728.50,0.0401
1728.00,0.0402
1727.50,0.0402
1727.00,0.0402
1726.50,0.0402
1726.00,0.0403
1725.50,0.0403
1725.00,0.0403
1724.50,0.0403
1724.00,0.0402
1723.50,0.0402
1723.00,0.0402
1722.50,0.0402
1722.00,0.0403
1721.50,0.0403
1721.00,0.0404
1720.50,0.0404
1720.00,0.0404
1719.50,0.0404
1719.00,0.0402
1718.50,0.0401
1718.00,0.0401
1717.50,0.0402
1717.00,0.0402
1716.50,0.0403
1716.00,0.0404
1715.50,0.0404
1715.00,0.0405
1714.50,0.0405
1714.00,0.0405
1713.50,0.0405
1713.00,0.0404
1712.50,0.0404
1712.00,0.0404
1711.50,0.0404
1711.00,0.0404
1710.50,0.0404
1710.00,0.0404
1709.50,0.0404
1709.00,0.0404
1708.50,0.0403
1708.00,0.0403
1707.50,0.0404
1707.00,0.0404
1706.50,0.0404
1706.00,0.0405
1705.50,0.0406
1705.00,0.0407
1704.50,0.0408
1704.00,0.0408
1703.50,0.0407
1703.00,0.0406
1702.50,0.0405
1702.00,0.0405
1701.50,0.0405
1701.00,0.0403
1700.50,0.0399
1700.00,0.0401
1699.50,0.0404
1699.00,0.0405
1698.50,0.0405
1698.00,0.0405
1697.50,0.0406
1697.00,0.0406
1696.50,0.0406
1696.00,0.0405
1695.50,0.0405
1695.00,0.0405
1694.50,0.0405
1694.00,0.0405
1693.50,0.0406
1693.00,0.0407
1692.50,0.0406
1692.00,0.0406
1691.50,0.0406
1691.00,0.0406
1690.50,0.0406
1690.00,0.0406
1689.50,0.0407
1689.00,0.0407
1688.50,0.0407
1688.00,0.0407
1687.50,0.0408
1687.00,0.0408
1686.50,0.0408
1686.00,0.0407
1685.50,0.0407
1685.00,0.0408
1684.50,0.0409
1684.00,0.0410
1683.50,0.0411
1683.00,0.0413
1682.50,0.0413
1682.00,0.0413
1681.50,0.0414
1681.00,0.0415
1680.50,0.0415
1680.00,0.0414
1679.50,0.0414
1679.00,0.0414
1678.50,0.0414
1678.00,0.0414
1677.50,0.0414
1677.00,0.0415
1676.50,0.0416
1676.00,0.0416
1675.50,0.0415
1675.00,0.0416
1674.50,0.0416
1674.00,0.0417
1673.50,0.0417
1673.00,0.0418
1672.50,0.0419
1672.00,0.0420
1671.50,0.0421
1671.00,0.0421
1670.50,0.0421
1670.00,0.0422
1669.50,0.0422
1669.00,0.0423
1668.50,0.0424
1668.00,0.0425
1667.50,0.0425
1667.00,0.0425
1666.50,0.0425
1666.00,0.0426
1665.50,0.0426
1665.00,0.0426
1664.50,0.0427
1664.00,0.0427
1663.50,0.0428
1663.00,0.0428
1662.50,0.0429
1662.00,0.0430
1661.50,0.0430
1661.00,0.0429
1660.50,0.0430
1660.00,0.0430
1659.50,0.0431
1659.00,0.0431
1658.50,0.0431
1658.00,0.0432
1657.50,0.0433
1657.00,0.0434
1656.50,0.0435
1656.00,0.0436
1655.50,0.0437
1655.00,0.0437
1654.50,0.0437
1654.00,0.0438
1653.50,0.0439
1653.00,0.0439
1652.50,0.0441
1652.00,0.0444
1651.50,0.0445
1651.00,0.0445
1650.50,0.0444
1650.00,0.0444
1649.50,0.0445
1649.00,0.0445
1648.50,0.0445
1648.00,0.0444
1647.50,0.0444
1647.00,0.0444
1646.50,0.0444
1646.00,0.0445
1645.50,0.0445
1645.00,0.0446
1644.50,0.0446
1644.00,0.0446
1643.50,0.0447
1643.00,0.0447
1642.50,0.0447
1642.00,0.0447
1641.50,0.0447
1641.00,0.0447
1640.50,0.0447
1640.00,0.0448
1639.50,0.0448
1639.00,0.0449
1638.50,0.0449
1638.00,0.0449
1637.50,0.0450
1637.00,0.0450
1636.50,0.0451
1636.00,0.0451
1635.50,0.0451
1635.00,0.0453
1634.50,0.0454
1634.00,0.0455
1633.50,0.0456
1633.00,0.0456
1632.50,0.0457
1632.00,0.0457
1631.50,0.0457
1631.00,0.0457
1630.50,0.0457
1630.00,0.0457
1629.50,0.0458
1629.00,0.0458
1628.50,0.0459
1628.00,0.0460
1627.50,0.0461
1627.00,0.0461
1626.50,0.0462
1626.00,0.0463
1625.50,0.0463
1625.00,0.0464
1624.50,0.0465
1624.00,0.0467
1623.50,0.0467
1623.00,0.0468
1622.50,0.0468
1622.00,0.0468
1621.50,0.0468
1621.00,0.0469
1620.50,0.0470
1620.00,0.0470
1619.50,0.0471
1619.00,0.0471
1618.50,0.0472
1618.00,0.0472
1617.50,0.0473
1617.00,0.0474
1616.50,0.0476
1616.00,0.0476
1615.50,0.0476
1615.00,0.0476
1614.50,0.0477
1614.00,0.0477
1613.50,0.0478
1613.00,0.0478
1612.50,0.0479
1612.00,0.0478
1611.50,0.0478
1611.00,0.0478
1610.50,0.0478
1610.00,0.0479
1609.50,0.0480
1609.00,0.0480
1608.50,0.0481
1608.00,0.0481
1607.50,0.0482
1607.00,0.0483
1606.50,0.0483
1606.00,0.0484
1605.50,0.0484
1605.00,0.0484
1604.50,0.0485
1604.00,0.0486
1603.50,0.0488
1603.00,0.0489
1602.50,0.0490
1602.00,0.0491
1601.50,0.0493
1601.00,0.0495
1600.50,0.0498
1600.00,0.0501
1599.50,0.0505
1599.00,0.0509
1598.50,0.0514
1598.00,0.0518
1597.50,0.0521
1597.00,0.0523
1596.50,0.0523
1596.00,0.0521
1595.50,0.0517
1595.00,0.0513
1594.50,0.0508
1594.00,0.0503
1593.50,0.0499
1593.00,0.0496
1592.50,0.0493
1592.00,0.0491
1591.50,0.0489
1591.00,0.0488
1590.50,0.0487
1590.00,0.0486
1589.50,0.0485
1589.00,0.0484
1588.50,0.0483
1588.00,0.0482
1587.50,0.0481
1587.00,0.0481
1586.50,0.0481
1586.00,0.0480
1585.50,0.0480
1585.00,0.0480
1584.50,0.0479
1584.00,0.0479
1583.50,0.0479
1583.00,0.0480
1582.50,0.0480
1582.00,0.0480
1581.50,0.0481
1581.00,0.0482
1580.50,0.0482
1580.00,0.0483
1579.50,0.0484
1579.00,0.0484
1578.50,0.0485
1578.00,0.0485
1577.50,0.0486
1577.00,0.0486
1576.50,0.0485
1576.00,0.0484
1575.50,0.0482
1575.00,0.0480
1574.50,0.0479
1574.00,0.0478
1573.50,0.0477
1573.00,0.0476
1572.50,0.0475
1572.00,0.0473
1571.50,0.0471
1571.00,0.0471
1570.50,0.0470
1570.00,0.0468
1569.50,0.0466
1569.00,0.0463
1568.50,0.0460
1568.00,0.0459
1567.50,0.0458
1567.00,0.0457
1566.50,0.0456
1566.00,0.0455
1565.50,0.0454
1565.00,0.0453
1564.50,0.0452
1564.00,0.0451
1563.50,0.0451
1563.00,0.0451
1562.50,0.0451
1562.00,0.0452
1561.50,0.0452
1561.00,0.0452
1560.50,0.0450
1560.00,0.0444
1559.50,0.0439
1559.00,0.0438
1558.50,0.0441
1558.00,0.0446
1557.50,0.0449
1557.00,0.0450
1556.50,0.0450
1556.00,0.0450
1555.50,0.0450
1555.00,0.0450
1554.50,0.0449
1554.00,0.0446
1553.50,0.0445
1553.00,0.0444
1552.50,0.0445
1552.00,0.0445
1551.50,0.0446
1551.00,0.0447
1550.50,0.0446
1550.00,0.0446
1549.50,0.0446
1549.00,0.0446
1548.50,0.0448
1548.00,0.0449
1547.50,0.0450
1547.00,0.0451
1546.50,0.0452
1546.00,0.0453
1545.50,0.0454
1545.00,0.0457
1544.50,0.0459
1544.00,0.0461
1543.50,0.0464
1543.00,0.0468
1542.50,0.0472
1542.00,0.0475
1541.50,0.0477
1541.00,0.0478
1540.50,0.0477
1540.00,0.0475
1539.50,0.0475
1539.00,0.0475
1538.50,0.0473
1538.00,0.0471
1537.50,0.0469
1537.00,0.0468
1536.50,0.0466
1536.00,0.0463
1535.50,0.0461
1535.00,0.0460
1534.50,0.0459
1534.00,0.0456
1533.50,0.0454
1533.00,0.0453
1532.50,0.0451
1532.00,0.0450
1531.50,0.0449
1531.00,0.0448
1530.50,0.0448
1530.00,0.0447
1529.50,0.0446
1529.00,0.0446
1528.50,0.0445
1528.00,0.0444
1527.50,0.0443
1527.00,0.0443
1526.50,0.0444
1526.00,0.0444
1525.50,0.0444
1525.00,0.0443
1524.50,0.0443
1524.00,0.0444
1523.50,0.0444
1523.00,0.0444
1522.50,0.0444
1522.00,0.0444
1521.50,0.0444
1521.00,0.0444
1520.50,0.0444
1520.00,0.0443
1519.50,0.0443
1519.00,0.0442
1518.50,0.0442
1518.00,0.0443
1517.50,0.0442
1517.00,0.0442
1516.50,0.0441
1516.00,0.0440
1515.50,0.0439
1515.00,0.0438
1514.50,0.0438
1514.00,0.0438
1513.50,0.0438
1513.00,0.0438
1512.50,0.0437
1512.00,0.0437
1511.50,0.0437
1511.00,0.0437
1510.50,0.0437
1510.00,0.0438
1509.50,0.0438
1509.00,0.0438
1508.50,0.0437
1508.00,0.0437
1507.50,0.0435
1507.00,0.0435
1506.50,0.0436
1506.00,0.0437
1505.50,0.0438
1505.00,0.0439
1504.50,0.0440
1504.00,0.0439
1503.50,0.0439
1503.00,0.0439
1502.50,0.0439
1502.00,0.0438
1501.50,0.0437
1501.00,0.0437
1500.50,0.0437
1500.00,0.0439
1499.50,0.0440
1499.00,0.0439
1498.50,0.0438
1498.00,0.0438
1497.50,0.0440
1497.00,0.0442
1496.50,0.0442
1496.00,0.0440
1495.50,0.0440
1495.00,0.0442
1494.50,0.0443
1494.00,0.0443
1493.50,0.0444
1493.00,0.0445
1492.50,0.0445
1492.00,0.0445
1491.50,0.0445
1491.00,0.0446
1490.50,0.0447
1490.00,0.0450
1489.50,0.0453
1489.00,0.0455
1488.50,0.0456
1488.00,0.0457
1487.50,0.0459
1487.00,0.0461
1486.50,0.0462
1486.00,0.0462
1485.50,0.0463
1485.00,0.0464
1484.50,0.0465
1484.00,0.0466
1483.50,0.0467
1483.00,0.0467
1482.50,0.0468
1482.00,0.0468
1481.50,0.0469
1481.00,0.0469
1480.50,0.0470
1480.00,0.0471
1479.50,0.0471
1479.00,0.0472
1478.50,0.0472
1478.00,0.0473
1477.50,0.0473
1477.00,0.0472
1476.50,0.0473
1476.00,0.0473
1475.50,0.0475
1475.00,0.0475
1474.50,0.0476
1474.00,0.0476
1473.50,0.0476
1473.00,0.0478
1472.50,0.0481
1472.00,0.0485
1471.50,0.0488
1471.00,0.0491
1470.50,0.0494
1470.00,0.0497
1469.50,0.0500
1469.00,0.0503
1468.50,0.0506
1468.00,0.0508
1467.50,0.0511
1467.00,0.0514
1466.50,0.0517
1466.00,0.0520
1465.50,0.0522
1465.00,0.0525
1464.50,0.0528
1464.00,0.0531
1463.50,0.0533
1463.00,0.0537
1462.50,0.0541
1462.00,0.0546
1461.50,0.0550
1461.00,0.0555
1460.50,0.0560
1460.00,0.0565
1459.50,0.0570
1459.00,0.0576
1458.50,0.0581
1458.00,0.0587
1457.50,0.0592
1457.00,0.0596
1456.50,0.0602
1456.00,0.0608
1455.50,0.0614
1455.00,0.0619
1454.50,0.0625
1454.00,0.0631
1453.50,0.0638
1453.00,0.0644
1452.50,0.0650
1452.00,0.0657
1451.50,0.0664
1451.00,0.0671
1450.50,0.0678
1450.00,0.0684
1449.50,0.0690
1449.00,0.0696
1448.50,0.0700
1448.00,0.0706
1447.50,0.0711
1447.00,0.0716
1446.50,0.0718
1446.00,0.0719
1445.50,0.0720
1445.00,0.0720
1444.50,0.0719
1444.00,0.0716
1443.50,0.0713
1443.00,0.0710
1442.50,0.0706
1442.00,0.0701
1441.50,0.0697
1441.00,0.0692
1440.50,0.0687
1440.00,0.0682
1439.50,0.0677
1439.00,0.0673
1438.50,0.0669
1438.00,0.0665
1437.50,0.0661
1437.00,0.0655
1436.50,0.0650
1436.00,0.0649
1435.50,0.0649
1435.00,0.0649
1434.50,0.0649
1434.00,0.0648
1433.50,0.0649
1433.00,0.0650
1432.50,0.0651
1432.00,0.0652
1431.50,0.0655
1431.00,0.0659
1430.50,0.0662
1430.00,0.0666
1429.50,0.0672
1429.00,0.0678
1428.50,0.0684
1428.00,0.0691
1427.50,0.0700
1427.00,0.0710
1426.50,0.0720
1426.00,0.0731
1425.50,0.0743
1425.00,0.0756
1424.50,0.0771
1424.00,0.0787
1423.50,0.0805
1423.00,0.0825
1422.50,0.0845
1422.00,0.0865
1421.50,0.0886
1421.00,0.0906
1420.50,0.0926
1420.00,0.0950
1419.50,0.0980
1419.00,0.1011
1418.50,0.1037
1418.00,0.1057
1417.50,0.1077
1417.00,0.1099
1416.50,0.1120
1416.00,0.1139
1415.50,0.1156
1415.00,0.1172
1414.50,0.1185
1414.00,0.1196
1413.50,0.1204
1413.00,0.1211
1412.50,0.1216
1412.00,0.1218
1411.50,0.1219
1411.00,0.1219
1410.50,0.1217
1410.00,0.1213
1409.50,0.1208
1409.00,0.1201
1408.50,0.1194
1408.00,0.1185
1407.50,0.1175
1407.00,0.1164
1406.50,0.1154
1406.00,0.1142
1405.50,0.1130
1405.00,0.1117
1404.50,0.1105
1404.00,0.1095
1403.50,0.1086
1403.00,0.1077
1402.50,0.1068
1402.00,0.1059
1401.50,0.1049
1401.00,0.1039
1400.50,0.1029
1400.00,0.1017
1399.50,0.1002
1399.00,0.0986
1398.50,0.0969
1398.00,0.0953
1397.50,0.0938
1397.00,0.0922
1396.50,0.0907
1396.00,0.0891
1395.50,0.0874
1395.00,0.0854
1394.50,0.0832
1394.00,0.0810
1393.50,0.0790
1393.00,0.0771
1392.50,0.0754
1392.00,0.0737
1391.50,0.0721
1391.00,0.0707
1390.50,0.0694
1390.00,0.0682
1389.50,0.0672
1389.00,0.0662
1388.50,0.0654
1388.00,0.0646
1387.50,0.0637
1387.00,0.0629
1386.50,0.0622
1386.00,0.0617
1385.50,0.0612
1385.00,0.0607
1384.50,0.0602
1384.00,0.0597
1383.50,0.0592
1383.00,0.0586
1382.50,0.0582
1382.00,0.0578
1381.50,0.0573
1381.00,0.0570
1380.50,0.0567
1380.00,0.0564
1379.50,0.0561
1379.00,0.0558
1378.50,0.0557
1378.00,0.0555
1377.50,0.0553
1377.00,0.0552
1376.50,0.0551
1376.00,0.0550
1375.50,0.0549
1375.00,0.0549
1374.50,0.0549
1374.00,0.0548
1373.50,0.0548
1373.00,0.0547
1372.50,0.0546
1372.00,0.0545
1371.50,0.0544
1371.00,0.0543
1370.50,0.0542
1370.00,0.0540
1369.50,0.0538
1369.00,0.0537
1368.50,0.0535
1368.00,0.0534
1367.50,0.0532
1367.00,0.0531
1366.50,0.0530
1366.00,0.0529
1365.50,0.0528
1365.00,0.0527
1364.50,0.0527
1364.00,0.0526
1363.50,0.0525
1363.00,0.0524
1362.50,0.0524
1362.00,0.0524
1361.50,0.0523
1361.00,0.0522
1360.50,0.0522
1360.00,0.0522
1359.50,0.0521
1359.00,0.0520
1358.50,0.0520
1358.00,0.0519
1357.50,0.0519
1357.00,0.0518
1356.50,0.0518
1356.00,0.0519
1355.50,0.0518
1355.00,0.0518
1354.50,0.0518
1354.00,0.0518
1353.50,0.0518
1353.00,0.0518
1352.50,0.0518
1352.00,0.0518
1351.50,0.0518
1351.00,0.0518
1350.50,0.0519
1350.00,0.0519
1349.50,0.0519
1349.00,0.0519
1348.50,0.0519
1348.00,0.0520
1347.50,0.0520
1347.00,0.0520
1346.50,0.0520
1346.00,0.0521
1345.50,0.0521
1345.00,0.0520
1344.50,0.0521
1344.00,0.0521
1343.50,0.0521
1343.00,0.0521
1342.50,0.0521
1342.00,0.0521
1341.50,0.0521
1341.00,0.0521
1340.50,0.0521
1340.00,0.0521
1339.50,0.0522
1339.00,0.0522
1338.50,0.0522
1338.00,0.0523
1337.50,0.0524
1337.00,0.0524
1336.50,0.0525
1336.00,0.0525
1335.50,0.0526
1335.00,0.0526
1334.50,0.0527
1334.00,0.0528
1333.50,0.0528
1333.00,0.0529
1332.50,0.0531
1332.00,0.0532
1331.50,0.0533
1331.00,0.0534
1330.50,0.0536
1330.00,0.0537
1329.50,0.0539
1329.00,0.0541
1328.50,0.0542
1328.00,0.0544
1327.50,0.0546
1327.00,0.0548
1326.50,0.0550
1326.00,0.0552
1325.50,0.0555
1325.00,0.0557
1324.50,0.0559
1324.00,0.0562
1323.50,0.0564
1323.00,0.0567
1322.50,0.0569
1322.00,0.0572
1321.50,0.0575
1321.00,0.0578
1320.50,0.0580
1320.00,0.0584
1319.50,0.0587
1319.00,0.0590
1318.50,0.0593
1318.00,0.0596
1317.50,0.0599
1317.00,0.0603
1316.50,0.0606
1316.00,0.0610
1315.50,0.0613
1315.00,0.0617
1314.50,0.0621
1314.00,0.0625
1313.50,0.0628
1313.00,0.0632
1312.50,0.0636
1312.00,0.0640
1311.50,0.0645
1311.00,0.0649
1310.50,0.0653
1310.00,0.0658
1309.50,0.0662
1309.00,0.0666
1308.50,0.0671
1308.00,0.0676
1307.50,0.0681
1307.00,0.0685
1306.50,0.0690
1306.00,0.0696
1305.50,0.0701
1305.00,0.0706
1304.50,0.0712
1304.00,0.0717
1303.50,0.0723
1303.00,0.0729
1302.50,0.0735
1302.00,0.0741
1301.50,0.0747
1301.00,0.0754
1300.50,0.0761
1300.00,0.0768
1299.50,0.0775
1299.00,0.0782
1298.50,0.0790
1298.00,0.0798
1297.50,0.0806
1297.00,0.0815
1296.50,0.0824
1296.00,0.0833
1295.50,0.0843
1295.00,0.0852
1294.50,0.0863
1294.00,0.0873
1293.50,0.0884
1293.00,0.0896
1292.50,0.0907
1292.00,0.0920
1291.50,0.0932
1291.00,0.0945
1290.50,0.0958
1290.00,0.0973
1289.50,0.0987
1289.00,0.1003
1288.50,0.1018
1288.00,0.1035
1287.50,0.1053
1287.00,0.1071
1286.50,0.1090
1286.00,0.1110
1285.50,0.1132
1285.00,0.1154
1284.50,0.1178
1284.00,0.1203
1283.50,0.1230
1283.00,0.1259
1282.50,0.1290
1282.00,0.1323
1281.50,0.1359
1281.00,0.1397
1280.50,0.1438
1280.00,0.1483
1279.50,0.1531
1279.00,0.1584
1278.50,0.1641
1278.00,0.1703
1277.50,0.1772
1277.00,0.1847
1276.50,0.1929
1276.00,0.2020
1275.50,0.2120
1275.00,0.2231
1274.50,0.2354
1274.00,0.2491
1273.50,0.2644
1273.00,0.2815
1272.50,0.3008
1272.00,0.3227
1271.50,0.3477
1271.00,0.3760
1270.50,0.4081
1270.00,0.4444
1269.50,0.4855
1269.00,0.5318
1268.50,0.5832
1268.00,0.6394
1267.50,0.6999
1267.00,0.7638
1266.50,0.8294
1266.00,0.8945
1265.50,0.9576
1265.00,1.0168
1264.50,1.0697
1264.00,1.1147
1263.50,1.1515
1263.00,1.1799
1262.50,1.1989
1262.00,1.2082
1261.50,1.2094
1261.00,1.2036
1260.50,1.1904
1260.00,1.1701
1259.50,1.1445
1259.00,1.1149
1258.50,1.0807
1258.00,1.0428
1257.50,1.0031
1257.00,0.9628
1256.50,0.9223
1256.00,0.8824
1255.50,0.8440
1255.00,0.8071
1254.50,0.7710
1254.00,0.7351
1253.50,0.6991
1253.00,0.6626
1252.50,0.6253
1252.00,0.5873
1251.50,0.5492
1251.00,0.5118
1250.50,0.4757
1250.00,0.4413
1249.50,0.4093
1249.00,0.3800
1248.50,0.3533
1248.00,0.3293
1247.50,0.3077
1247.00,0.2886
1246.50,0.2716
1246.00,0.2565
1245.50,0.2432
1245.00,0.2314
1244.50,0.2209
1244.00,0.2115
1243.50,0.2031
1243.00,0.1956
1242.50,0.1888
1242.00,0.1827
1241.50,0.1772
1241.00,0.1723
1240.50,0.1678
1240.00,0.1638
1239.50,0.1601
1239.00,0.1568
1238.50,0.1539
1238.00,0.1512
1237.50,0.1487
1237.00,0.1466
1236.50,0.1446
1236.00,0.1428
1235.50,0.1413
1235.00,0.1399
1234.50,0.1387
1234.00,0.1376
1233.50,0.1367
1233.00,0.1360
1232.50,0.1354
1232.00,0.1349
1231.50,0.1346
1231.00,0.1344
1230.50,0.1343
1230.00,0.1343
1229.50,0.1344
1229.00,0.1347
1228.50,0.1350
1228.00,0.1354
1227.50,0.1360
1227.00,0.1366
1226.50,0.1373
1226.00,0.1381
1225.50,0.1390
1225.00,0.1399
1224.50,0.1410
1224.00,0.1421
1223.50,0.1433
1223.00,0.1446
1222.50,0.1460
1222.00,0.1474
1221.50,0.1490
1221.00,0.1506
1220.50,0.1522
1220.00,0.1539
1219.50,0.1557
1219.00,0.1576
1218.50,0.1595
1218.00,0.1614
1217.50,0.1634
1217.00,0.1655
1216.50,0.1676
1216.00,0.1697
1215.50,0.1719
1215.00,0.1741
1214.50,0.1764
1214.00,0.1786
1213.50,0.1809
1213.00,0.1832
1212.50,0.1856
1212.00,0.1879
1211.50,0.1903
1211.00,0.1927
1210.50,0.1950
1210.00,0.1974
1209.50,0.1997
1209.00,0.2021
1208.50,0.2045
1208.00,0.2068
1207.50,0.2091
1207.00,0.2115
1206.50,0.2137
1206.00,0.2160
1205.50,0.2182
1205.00,0.2204
1204.50,0.2225
1204.00,0.2246
1203.50,0.2267
1203.00,0.2288
1202.50,0.2308
1202.00,0.2328
1201.50,0.2347
1201.00,0.2366
1200.50,0.2385
1200.00,0.2403
1199.50,0.2421
1199.00,0.2438
1198.50,0.2455
1198.00,0.2472
1197.50,0.2488
1197.00,0.2504
1196.50,0.2520
1196.00,0.2534
1195.50,0.2548
1195.00,0.2562
1194.50,0.2576
1194.00,0.2589
1193.50,0.2602
1193.00,0.2615
1192.50,0.2627
1192.00,0.2638
1191.50,0.2650
1191.00,0.2661
1190.50,0.2672
1190.00,0.2682
1189.50,0.2693
1189.00,0.2704
1188.50,0.2715
1188.00,0.2726
1187.50,0.2737
1187.00,0.2749
1186.50,0.2759
1186.00,0.2767
1185.50,0.2774
1185.00,0.2780
1184.50,0.2786
1184.00,0.2792
1183.50,0.2798
1183.00,0.2805
1182.50,0.2812
1182.00,0.2818
1181.50,0.2826
1181.00,0.2833
1180.50,0.2841
1180.00,0.2848
1179.50,0.2856
1179.00,0.2864
1178.50,0.2872
1178.00,0.2880
1177.50,0.2888
1177.00,0.2897
1176.50,0.2906
1176.00,0.2915
1175.50,0.2924
1175.00,0.2933
1174.50,0.2943
1174.00,0.2952
1173.50,0.2961
1173.00,0.2970
1172.50,0.2980
1172.00,0.2989
1171.50,0.2997
1171.00,0.3007
1170.50,0.3016
1170.00,0.3025
1169.50,0.3034
1169.00,0.3044
1168.50,0.3054
1168.00,0.3064
1167.50,0.3075
1167.00,0.3086
1166.50,0.3097
1166.00,0.3109
1165.50,0.3121
1165.00,0.3134
1164.50,0.3147
1164.00,0.3160
1163.50,0.3173
1163.00,0.3188
1162.50,0.3203
1162.00,0.3218
1161.50,0.3234
1161.00,0.3250
1160.50,0.3268
1160.00,0.3285
1159.50,0.3303
1159.00,0.3322
1158.50,0.3342
1158.00,0.3361
1157.50,0.3381
1157.00,0.3402
1156.50,0.3422
1156.00,0.3443
1155.50,0.3465
1155.00,0.3488
1154.50,0.3511
1154.00,0.3534
1153.50,0.3559
1153.00,0.3585
1152.50,0.3611
1152.00,0.3638
1151.50,0.3666
1151.00,0.3695
1150.50,0.3726
1150.00,0.3756
1149.50,0.3788
1149.00,0.3822
1148.50,0.3856
1148.00,0.3892
1147.50,0.3928
1147.00,0.3966
1146.50,0.4005
1146.00,0.4045
1145.50,0.4087
1145.00,0.4130
1144.50,0.4175
1144.00,0.4220
1143.50,0.4268
1143.00,0.4317
1142.50,0.4367
1142.00,0.4418
1141.50,0.4471
1141.00,0.4526
1140.50,0.4583
1140.00,0.4640
1139.50,0.4698
1139.00,0.4758
1138.50,0.4819
1138.00,0.4880
1137.50,0.4943
1137.00,0.5008
1136.50,0.5075
1136.00,0.5142
1135.50,0.5212
1135.00,0.5285
1134.50,0.5359
1134.00,0.5435
1133.50,0.5514
1133.00,0.5596
1132.50,0.5681
1132.00,0.5768
1131.50,0.5857
1131.00,0.5952
1130.50,0.6048
1130.00,0.6147
1129.50,0.6249
1129.00,0.6355
1128.50,0.6464
1128.00,0.6575
1127.50,0.6689
1127.00,0.6808
1126.50,0.6929
1126.00,0.7052
1125.50,0.7178
1125.00,0.7309
1124.50,0.7443
1124.00,0.7577
1123.50,0.7715
1123.00,0.7857
1122.50,0.8001
1122.00,0.8145
1121.50,0.8292
1121.00,0.8444
1120.50,0.8597
1120.00,0.8750
1119.50,0.8905
1119.00,0.9064
1118.50,0.9222
1118.00,0.9380
1117.50,0.9538
1117.00,0.9701
1116.50,0.9863
1116.00,1.0022
1115.50,1.0181
1115.00,1.0343
1114.50,1.0504
1114.00,1.0661
1113.50,1.0818
1113.00,1.0979
1112.50,1.1136
1112.00,1.1286
1111.50,1.1436
1111.00,1.1589
1110.50,1.1740
1110.00,1.1882
1109.50,1.2024
1109.00,1.2169
1108.50,1.2309
1108.00,1.2439
1107.50,1.2568
1107.00,1.2702
1106.50,1.2831
1106.00,1.2951
1105.50,1.3070
1105.00,1.3193
1104.50,1.3310
1104.00,1.3414
1103.50,1.3517
1103.00,1.3623
1102.50,1.3725
1102.00,1.3816
1101.50,1.3906
1101.00,1.4001
1100.50,1.4089
1100.00,1.4164
1099.50,1.4238
1099.00,1.4320
1098.50,1.4397
1098.00,1.4459
1097.50,1.4520
1097.00,1.4584
1096.50,1.4641
1096.00,1.4684
1095.50,1.4729
1095.00,1.4783
1094.50,1.4830
1094.00,1.4859
1093.50,1.4887
1093.00,1.4922
1092.50,1.4949
1092.00,1.4961
1091.50,1.4974
1091.00,1.4996
1090.50,1.5012
1090.00,1.5013
1089.50,1.5014
1089.00,1.5023
1088.50,1.5024
1088.00,1.5010
1087.50,1.4999
1087.00,1.4999
1086.50,1.4994
1086.00,1.4974
1085.50,1.4956
1085.00,1.4946
1084.50,1.4931
1084.00,1.4901
1083.50,1.4873
1083.00,1.4854
1082.50,1.4829
1082.00,1.4790
1081.50,1.4754
1081.00,1.4725
1080.50,1.4692
1080.00,1.4645
1079.50,1.4602
1079.00,1.4568
1078.50,1.4531
1078.00,1.4483
1077.50,1.4437
1077.00,1.4400
1076.50,1.4358
1076.00,1.4306
1075.50,1.4257
1075.00,1.4217
1074.50,1.4173
1074.00,1.4118
1073.50,1.4064
1073.00,1.4019
1072.50,1.3970
1072.00,1.3913
1071.50,1.3859
1071.00,1.3814
1070.50,1.3766
1070.00,1.3708
1069.50,1.3654
1069.00,1.3607
1068.50,1.3558
1068.00,1.3499
1067.50,1.3443
1067.00,1.3395
1066.50,1.3345
1066.00,1.3286
1065.50,1.3229
1065.00,1.3179
1064.50,1.3127
1064.00,1.3069
1063.50,1.3012
1063.00,1.2962
1062.50,1.2909
1062.00,1.2849
1061.50,1.2791
1061.00,1.2742
1060.50,1.2691
1060.00,1.2634
1059.50,1.2578
1059.00,1.2528
1058.50,1.2476
1058.00,1.2418
1057.50,1.2363
1057.00,1.2315
1056.50,1.2266
1056.00,1.2211
1055.50,1.2159
1055.00,1.2113
1054.50,1.2066
1054.00,1.2014
1053.50,1.1966
1053.00,1.1924
1052.50,1.1880
1052.00,1.1831
1051.50,1.1785
1051.00,1.1746
1050.50,1.1707
1050.00,1.1663
1049.50,1.1622
1049.00,1.1588
1048.50,1.1556
1048.00,1.1519
1047.50,1.1486
1047.00,1.1458
1046.50,1.1431
1046.00,1.1400
1045.50,1.1372
1045.00,1.1351
1044.50,1.1332
1044.00,1.1311
1043.50,1.1292
1043.00,1.1278
1042.50,1.1264
1042.00,1.1247
1041.50,1.1233
1041.00,1.1226
1040.50,1.1220
1040.00,1.1211
1039.50,1.1204
1039.00,1.1202
1038.50,1.1198
1038.00,1.1191
1037.50,1.1187
1037.00,1.1189
1036.50,1.1193
1036.00,1.1192
1035.50,1.1192
1035.00,1.1198
1034.50,1.1205
1034.00,1.1211
1033.50,1.1218
1033.00,1.1229
1032.50,1.1238
1032.00,1.1244
1031.50,1.1252
1031.00,1.1265
1030.50,1.1277
1030.00,1.1287
1029.50,1.1297
1029.00,1.1311
1028.50,1.1324
1028.00,1.1332
1027.50,1.1341
1027.00,1.1353
1026.50,1.1364
1026.00,1.1370
1025.50,1.1376
1025.00,1.1383
1024.50,1.1388
1024.00,1.1386
1023.50,1.1382
1023.00,1.1380
1022.50,1.1373
1022.00,1.1359
1021.50,1.1341
1021.00,1.1322
1020.50,1.1296
1020.00,1.1261
1019.50,1.1220
1019.00,1.1174
1018.50,1.1120
1018.00,1.1053
1017.50,1.0976
1017.00,1.0892
1016.50,1.0797
1016.00,1.0686
1015.50,1.0566
1015.00,1.0436
1014.50,1.0295
1014.00,1.0138
1013.50,0.9971
1013.00,0.9795
1012.50,0.9607
1012.00,0.9407
1011.50,0.9199
1011.00,0.8985
1010.50,0.8764
1010.00,0.8537
1009.50,0.8308
1009.00,0.8078
1008.50,0.7848
1008.00,0.7616
1007.50,0.7387
1007.00,0.7160
1006.50,0.6936
1006.00,0.6715
1005.50,0.6498
1005.00,0.6287
1004.50,0.6082
1004.00,0.5881
1003.50,0.5687
1003.00,0.5500
1002.50,0.5319
1002.00,0.5143
1001.50,0.4975
1001.00,0.4814
1000.50,0.4659
1000.00,0.4511
999.50,0.4369
999.00,0.4233
998.50,0.4104
998.00,0.3980
997.50,0.3861
997.00,0.3749
996.50,0.3641
996.00,0.3538
995.50,0.3440
995.00,0.3345
994.50,0.3255
994.00,0.3169
993.50,0.3087
993.00,0.3008
992.50,0.2932
992.00,0.2859
991.50,0.2790
991.00,0.2723
990.50,0.2660
990.00,0.2598
989.50,0.2539
989.00,0.2482
988.50,0.2427
988.00,0.2374
987.50,0.2324
987.00,0.2275
986.50,0.2229
986.00,0.2184
985.50,0.2141
985.00,0.2099
984.50,0.2059
984.00,0.2020
983.50,0.1982
983.00,0.1946
982.50,0.1911
982.00,0.1878
981.50,0.1845
981.00,0.1814
980.50,0.1785
980.00,0.1756
979.50,0.1727
979.00,0.1700
978.50,0.1674
978.00,0.1649
977.50,0.1624
977.00,0.1601
976.50,0.1578
976.00,0.1556
975.50,0.1535
975.00,0.1515
974.50,0.1495
974.00,0.1476
973.50,0.1458
973.00,0.1440
972.50,0.1423
972.00,0.1406
971.50,0.1391
971.00,0.1375
970.50,0.1361
970.00,0.1347
969.50,0.1333
969.00,0.1320
968.50,0.1308
968.00,0.1296
967.50,0.1285
967.00,0.1274
966.50,0.1264
966.00,0.1254
965.50,0.1245
965.00,0.1237
964.50,0.1230
964.00,0.1222
963.50,0.1215
963.00,0.1209
962.50,0.1203
962.00,0.1198
961.50,0.1192
961.00,0.1187
960.50,0.1181
960.00,0.1176
959.50,0.1170
959.00,0.1165
958.50,0.1159
958.00,0.1152
957.50,0.1146
957.00,0.1141
956.50,0.1136
956.00,0.1130
955.50,0.1124
955.00,0.1116
954.50,0.1108
954.00,0.1099
953.50,0.1090
953.00,0.1080
952.50,0.1070
952.00,0.1059
951.50,0.1049
951.00,0.1039
950.50,0.1029
950.00,0.1020
949.50,0.1011
949.00,0.1003
948.50,0.0995
948.00,0.0988
947.50,0.0982
947.00,0.0975
946.50,0.0970
946.00,0.0965
945.50,0.0960
945.00,0.0956
944.50,0.0952
944.00,0.0948
943.50,0.0944
943.00,0.0941
942.50,0.0938
942.00,0.0936
941.50,0.0934
941.00,0.0932
940.50,0.0930
940.00,0.0929
939.50,0.0928
939.00,0.0928
938.50,0.0928
938.00,0.0928
937.50,0.0928
937.00,0.0929
936.50,0.0930
936.00,0.0932
935.50,0.0934
935.00,0.0936
934.50,0.0939
934.00,0.0942
933.50,0.0945
933.00,0.0950
932.50,0.0954
932.00,0.0959
931.50,0.0965
931.00,0.0970
930.50,0.0976
930.00,0.0983
929.50,0.0989
929.00,0.0996
928.50,0.1003
928.00,0.1010
927.50,0.1017
927.00,0.1024
926.50,0.1032
926.00,0.1039
925.50,0.1046
925.00,0.1054
924.50,0.1063
924.00,0.1072
923.50,0.1082
923.00,0.1093
922.50,0.1105
922.00,0.1118
921.50,0.1132
921.00,0.1148
920.50,0.1165
920.00,0.1183
919.50,0.1201
919.00,0.1221
918.50,0.1241
918.00,0.1261
917.50,0.1281
917.00,0.1301
916.50,0.1320
916.00,0.1338
915.50,0.1356
915.00,0.1372
914.50,0.1387
914.00,0.1400
913.50,0.1412
913.00,0.1422
912.50,0.1430
912.00,0.1436
911.50,0.1441
911.00,0.1443
910.50,0.1444
910.00,0.1443
909.50,0.1441
909.00,0.1439
908.50,0.1435
908.00,0.1432
907.50,0.1428
907.00,0.1425
906.50,0.1422
906.00,0.1420
905.50,0.1419
905.00,0.1419
904.50,0.1421
904.00,0.1424
903.50,0.1429
903.00,0.1435
902.50,0.1443
902.00,0.1452
901.50,0.1463
901.00,0.1476
900.50,0.1490
900.00,0.1505
899.50,0.1522
899.00,0.1539
898.50,0.1559
898.00,0.1579
897.50,0.1601
897.00,0.1623
896.50,0.1646
896.00,0.1669
895.50,0.1693
895.00,0.1718
894.50,0.1744
894.00,0.1770
893.50,0.1797
893.00,0.1824
892.50,0.1851
892.00,0.1880
891.50,0.1909
891.00,0.1940
890.50,0.1971
890.00,0.2004
889.50,0.2038
889.00,0.2074
888.50,0.2112
888.00,0.2152
887.50,0.2195
887.00,0.2240
886.50,0.2287
886.00,0.2338
885.50,0.2390
885.00,0.2446
884.50,0.2504
884.00,0.2565
883.50,0.2628
883.00,0.2694
882.50,0.2762
882.00,0.2833
881.50,0.2905
881.00,0.2981
880.50,0.3059
880.00,0.3139
879.50,0.3222
879.00,0.3308
878.50,0.3396
878.00,0.3488
877.50,0.3582
877.00,0.3680
876.50,0.3782
876.00,0.3887
875.50,0.3994
875.00,0.4105
874.50,0.4219
874.00,0.4334
873.50,0.4451
873.00,0.4568
872.50,0.4684
872.00,0.4797
871.50,0.4907
871.00,0.5012
870.50,0.5112
870.00,0.5203
869.50,0.5285
869.00,0.5357
868.50,0.5419
868.00,0.5469
867.50,0.5506
867.00,0.5533
866.50,0.5548
866.00,0.5552
865.50,0.5545
865.00,0.5531
864.50,0.5509
864.00,0.5480
863.50,0.5446
863.00,0.5409
862.50,0.5370
862.00,0.5328
861.50,0.5285
861.00,0.5245
860.50,0.5206
860.00,0.5171
859.50,0.5139
859.00,0.5113
858.50,0.5092
858.00,0.5078
857.50,0.5071
857.00,0.5072
856.50,0.5081
856.00,0.5099
855.50,0.5126
855.00,0.5162
854.50,0.5207
854.00,0.5259
853.50,0.5319
853.00,0.5388
852.50,0.5463
852.00,0.5542
851.50,0.5623
851.00,0.5708
850.50,0.5794
850.00,0.5881
849.50,0.5966
849.00,0.6048
848.50,0.6125
848.00,0.6194
847.50,0.6253
847.00,0.6304
846.50,0.6344
846.00,0.6371
845.50,0.6386
845.00,0.6389
844.50,0.6378
844.00,0.6354
843.50,0.6319
843.00,0.6274
842.50,0.6220
842.00,0.6156
841.50,0.6087
841.00,0.6014
840.50,0.5938
840.00,0.5859
839.50,0.5780
839.00,0.5704
838.50,0.5632
838.00,0.5564
837.50,0.5501
837.00,0.5445
836.50,0.5396
836.00,0.5355
835.50,0.5323
835.00,0.5300
834.50,0.5286
834.00,0.5281
833.50,0.5286
833.00,0.5303
832.50,0.5330
832.00,0.5367
831.50,0.5414
831.00,0.5474
830.50,0.5545
830.00,0.5627
829.50,0.5723
829.00,0.5833
828.50,0.5957
828.00,0.6093
827.50,0.6242
827.00,0.6404
826.50,0.6578
826.00,0.6761
825.50,0.6952
825.00,0.7150
824.50,0.7351
824.00,0.7550
823.50,0.7744
823.00,0.7935
822.50,0.8117
822.00,0.8285
821.50,0.8439
821.00,0.8583
820.50,0.8716
820.00,0.8834
819.50,0.8941
819.00,0.9041
818.50,0.9133
818.00,0.9217
817.50,0.9296
817.00,0.9377
816.50,0.9460
816.00,0.9543
815.50,0.9630
815.00,0.9725
814.50,0.9827
814.00,0.9934
813.50,1.0048
813.00,1.0170
812.50,1.0298
812.00,1.0429
811.50,1.0565
811.00,1.0711
810.50,1.0862
810.00,1.1012
809.50,1.1162
809.00,1.1316
808.50,1.1469
808.00,1.1614
807.50,1.1753
807.00,1.1889
806.50,1.2020
806.00,1.2139
805.50,1.2250
805.00,1.2358
804.50,1.2457
804.00,1.2538
803.50,1.2602
803.00,1.2657
802.50,1.2700
802.00,1.2724
801.50,1.2729
801.00,1.2724
800.50,1.2703
800.00,1.2660
799.50,1.2599
799.00,1.2524
798.50,1.2432
798.00,1.2316
797.50,1.2184
797.00,1.2042
796.50,1.1885
796.00,1.1707
795.50,1.1512
795.00,1.1309
794.50,1.1094
794.00,1.0863
793.50,1.0620
793.00,1.0368
792.50,1.0106
792.00,0.9830
791.50,0.9545
791.00,0.9257
790.50,0.8966
790.00,0.8669
789.50,0.8370
789.00,0.8073
788.50,0.7777
788.00,0.7482
787.50,0.7191
787.00,0.6906
786.50,0.6627
786.00,0.6356
785.50,0.6092
785.00,0.5840
784.50,0.5597
784.00,0.5365
783.50,0.5143
783.00,0.4934
782.50,0.4735
782.00,0.4547
781.50,0.4371
781.00,0.4205
780.50,0.4049
780.00,0.3902
779.50,0.3763
779.00,0.3633
778.50,0.3513
778.00,0.3401
777.50,0.3297
777.00,0.3201
776.50,0.3112
776.00,0.3031
775.50,0.2957
775.00,0.2889
774.50,0.2829
774.00,0.2774
773.50,0.2724
773.00,0.2679
772.50,0.2639
772.00,0.2602
771.50,0.2570
771.00,0.2541
770.50,0.2516
770.00,0.2495
769.50,0.2477
769.00,0.2461
768.50,0.2449
768.00,0.2440
767.50,0.2434
767.00,0.2431
766.50,0.2432
766.00,0.2437
765.50,0.2445
765.00,0.2457
764.50,0.2473
764.00,0.2493
763.50,0.2517
763.00,0.2546
762.50,0.2578
762.00,0.2614
761.50,0.2652
761.00,0.2692
760.50,0.2734
760.00,0.2773
759.50,0.2810
759.00,0.2841
758.50,0.2864
758.00,0.2876
757.50,0.2876
757.00,0.2863
756.50,0.2835
756.00,0.2793
755.50,0.2739
755.00,0.2674
754.50,0.2600
754.00,0.2520
753.50,0.2436
753.00,0.2352
752.50,0.2269
752.00,0.2188
751.50,0.2111
751.00,0.2039
750.50,0.1971
750.00,0.1908
749.50,0.1850
749.00,0.1798
748.50,0.1751
748.00,0.1708
747.50,0.1669
747.00,0.1633
746.50,0.1602
746.00,0.1573
745.50,0.1547
745.00,0.1523
744.50,0.1502
744.00,0.1482
743.50,0.1463
743.00,0.1447
742.50,0.1431
742.00,0.1416
741.50,0.1402
741.00,0.1389
740.50,0.1376
740.00,0.1364
739.50,0.1353
739.00,0.1341
738.50,0.1331
738.00,0.1320
737.50,0.1311
737.00,0.1302
736.50,0.1293
736.00,0.1285
735.50,0.1278
735.00,0.1271
734.50,0.1265
734.00,0.1259
733.50,0.1254
733.00,0.1249
732.50,0.1244
732.00,0.1240
731.50,0.1236
731.00,0.1233
730.50,0.1230
730.00,0.1227
729.50,0.1224
729.00,0.1222
728.50,0.1220
728.00,0.1219
727.50,0.1217
727.00,0.1216
726.50,0.1214
726.00,0.1213
725.50,0.1213
725.00,0.1212
724.50,0.1213
724.00,0.1213
723.50,0.1213
723.00,0.1214
722.50,0.1215
722.00,0.1217
721.50,0.1219
721.00,0.1221
720.50,0.1224
720.00,0.1227
719.50,0.1231
719.00,0.1236
718.50,0.1242
718.00,0.1248
717.50,0.1255
717.00,0.1264
716.50,0.1274
716.00,0.1285
715.50,0.1298
715.00,0.1312
714.50,0.1329
714.00,0.1347
713.50,0.1368
713.00,0.1390
712.50,0.1415
712.00,0.1441
711.50,0.1469
711.00,0.1499
710.50,0.1531
710.00,0.1562
709.50,0.1594
709.00,0.1625
708.50,0.1655
708.00,0.1684
707.50,0.1710
707.00,0.1734
706.50,0.1755
706.00,0.1772
705.50,0.1786
705.00,0.1797
704.50,0.1807
704.00,0.1814
703.50,0.1818
703.00,0.1821
702.50,0.1822
702.00,0.1821
701.50,0.1819
701.00,0.1817
700.50,0.1815
700.00,0.1811
699.50,0.1808
699.00,0.1805
698.50,0.1802
698.00,0.1799
697.50,0.1796
697.00,0.1794
696.50,0.1792
696.00,0.1791
695.50,0.1790
695.00,0.1790
694.50,0.1791
694.00,0.1792
693.50,0.1794
693.00,0.1796
692.50,0.1797
692.00,0.1799
691.50,0.1799
691.00,0.1800
690.50,0.1799
690.00,0.1798
689.50,0.1795
689.00,0.1791
688.50,0.1784
688.00,0.1776
687.50,0.1766
687.00,0.1753
686.50,0.1739
686.00,0.1723
685.50,0.1705
685.00,0.1685
684.50,0.1665
684.00,0.1643
683.50,0.1621
683.00,0.1599
682.50,0.1577
682.00,0.1555
681.50,0.1534
681.00,0.1514
680.50,0.1496
680.00,0.1478
679.50,0.1461
679.00,0.1445
678.50,0.1430
678.00,0.1416
677.50,0.1403
677.00,0.1392
676.50,0.1381
676.00,0.1371
675.50,0.1361
675.00,0.1353
674.50,0.1345
674.00,0.1338
673.50,0.1331
673.00,0.1326
672.50,0.1320
672.00,0.1316
671.50,0.1311
671.00,0.1308
670.50,0.1305
670.00,0.1303
669.50,0.1302
669.00,0.1302
668.50,0.1301
668.00,0.1301
667.50,0.1302
667.00,0.1305
666.50,0.1309
666.00,0.1314
665.50,0.1320
665.00,0.1326
664.50,0.1333
664.00,0.1340
663.50,0.1348
663.00,0.1357
662.50,0.1365
662.00,0.1373
661.50,0.1378
661.00,0.1380
660.50,0.1377
660.00,0.1365
659.50,0.1342
659.00,0.1309
658.50,0.1265
658.00,0.1216
657.50,0.1163
657.00,0.1112
656.50,0.1065
656.00,0.1022
655.50,0.0986
655.00,0.0957
654.50,0.0933
654.00,0.0913
653.50,0.0896
653.00,0.0881
652.50,0.0870
652.00,0.0860
651.50,0.0851
651.00,0.0844
650.50,0.0838
650.00,0.0833
649.50,0.0829
649.00,0.0825
648.50,0.0823
648.00,0.0821
647.50,0.0819
647.00,0.0818
646.50,0.0817
646.00,0.0817
645.50,0.0817
645.00,0.0817
644.50,0.0817
644.00,0.0817
643.50,0.0818
643.00,0.0819
642.50,0.0821
642.00,0.0823
641.50,0.0825
641.00,0.0827
640.50,0.0829
640.00,0.0831
639.50,0.0833
639.00,0.0835
638.50,0.0838
638.00,0.0840
637.50,0.0842
637.00,0.0845
636.50,0.0848
636.00,0.0850
635.50,0.0852
635.00,0.0855
634.50,0.0857
634.00,0.0859
633.50,0.0861
633.00,0.0863
632.50,0.0865
632.00,0.0867
631.50,0.0868
631.00,0.0869
630.50,0.0871
630.00,0.0871
629.50,0.0872
629.00,0.0873
628.50,0.0873
628.00,0.0874
627.50,0.0874
627.00,0.0875
626.50,0.0875
626.00,0.0875
625.50,0.0875
625.00,0.0875
624.50,0.0875
624.00,0.0874
623.50,0.0874
623.00,0.0873
622.50,0.0872
622.00,0.0872
621.50,0.0871
621.00,0.0870
620.50,0.0869
620.00,0.0868
619.50,0.0867
619.00,0.0867
618.50,0.0867
618.00,0.0867
617.50,0.0867
617.00,0.0866
616.50,0.0866
616.00,0.0867
615.50,0.0868
615.00,0.0868
614.50,0.0869
614.00,0.0869
613.50,0.0869
613.00,0.0870
612.50,0.0870
612.00,0.0871
611.50,0.0873
611.00,0.0875
610.50,0.0877
610.00,0.0880
609.50,0.0884
609.00,0.0889
608.50,0.0895
608.00,0.0903
607.50,0.0912
607.00,0.0922
606.50,0.0934
606.00,0.0948
605.50,0.0963
605.00,0.0980
604.50,0.0998
604.00,0.1016
603.50,0.1035
603.00,0.1053
602.50,0.1070
602.00,0.1085
601.50,0.1097
601.00,0.1106
600.50,0.1111
600.00,0.1112
